# t[ps]  x[nm]  y[nm]  z[nm]
0.00000 0.05813 -0.01528 -0.00016
0.10000 1.25618 -0.16136 -0.03716
0.20000 0.85629 -0.24824 0.01793
0.30000 0.88263 -0.11861 -0.07780
0.40000 1.00435 -0.19265 0.01526
0.50000 0.84242 -0.26468 0.03029
0.60000 0.97393 -0.25850 0.02570
0.70000 0.85840 -0.07941 -0.01670
0.80000 1.00086 0.14137 0.03999
0.90000 0.83318 0.25266 -0.00852
1.00000 0.90253 0.14261 -0.03241
1.10000 0.99887 0.08770 0.01617
1.20000 0.86667 0.15125 0.04549
1.30000 0.98593 0.01094 0.00720
1.40000 0.87987 -0.13026 -0.00917
1.50000 0.89519 -0.12456 0.00283
1.60000 0.94935 -0.01468 0.04193
1.70000 0.91190 0.08119 -0.02471
1.80000 0.92326 -0.20763 -0.00676
1.90000 0.89550 -0.23930 0.01102
2.00000 0.90362 -0.06704 -0.02929
2.10000 0.93699 0.06487 -0.00412
2.20000 0.94940 0.05898 0.00674
2.30000 0.91504 0.10441 0.00946
2.40000 0.97715 -0.09536 -0.00657
2.50000 0.86835 -0.28742 -0.01407
2.60000 0.96708 -0.32302 0.05652
2.70000 0.85028 -0.31334 -0.04493
2.80000 0.97596 -0.36512 0.04369
2.90000 0.87777 -0.37354 0.02216
3.00000 0.95044 -0.27790 -0.02235
3.10000 0.93556 -0.05959 -0.01772
3.20000 0.91026 0.02688 -0.03434
3.30000 0.91416 -0.05803 -0.02289
3.40000 0.89106 -0.21359 0.00145
3.50000 0.98652 -0.32222 -0.06318
3.60000 0.97165 -0.43950 0.01172
3.70000 0.88414 -0.42840 0.01705
3.80000 0.92336 -0.14737 0.01403
3.90000 0.95024 0.01171 0.04196
4.00000 0.88574 0.23313 0.02385
4.10000 0.89960 0.33584 -0.00324
4.20000 0.94417 0.27625 -0.03077
4.30000 0.88664 0.11428 0.00996
4.40000 0.95412 -0.10559 0.01271
4.50000 0.91581 -0.39600 -0.00291
4.60000 0.91414 -0.25733 -0.01281
4.70000 0.94413 -0.17423 -0.06704
4.80000 0.92550 -0.06493 -0.07094
4.90000 0.98705 -0.03155 0.06096
5.00000 0.91848 0.08244 -0.04769
5.10000 0.88408 0.26645 -0.02085
5.20000 0.99830 0.30881 -0.00502
5.30000 0.93494 -0.01105 0.01631
5.40000 0.92230 -0.18796 -0.03901
5.50000 0.90138 -0.17341 0.01273
5.60000 0.90362 0.03312 -0.02210
5.70000 0.89819 0.10145 -0.05125
5.80000 0.96448 0.04158 -0.02792
5.90000 0.90328 -0.05699 0.04923
6.00000 0.94109 -0.15684 -0.02476
6.10000 0.89988 -0.06202 -0.03831
6.20000 0.90162 0.26134 0.01906
6.30000 0.97676 0.36178 -0.06174
6.40000 0.91369 0.17668 -0.02272
6.50000 0.94700 0.12917 0.02284
6.60000 0.90886 0.08942 0.01484
6.70000 0.93085 0.02378 -0.00747
6.80000 0.92948 0.01986 -0.01226
6.90000 0.90837 0.13882 0.03186
7.00000 0.93534 0.13292 0.02960
7.10000 0.86293 -0.09363 0.00130
7.20000 0.96134 -0.07367 -0.00572
7.30000 0.94745 0.05101 0.01366
7.40000 0.88867 -0.08325 -0.00659
7.50000 0.98637 -0.18627 0.00809
7.60000 0.86930 -0.01169 0.03457
7.70000 0.97039 0.26987 -0.02338
7.80000 0.97863 0.30669 -0.01823
7.90000 0.95509 0.01415 -0.01524
8.00000 0.96954 -0.01911 0.01146
8.10000 0.83867 0.21605 0.01310
8.20000 0.93992 0.35121 -0.01334
8.30000 0.94646 0.41582 -0.03444
8.40000 0.88207 0.25631 0.02507
8.50000 0.96053 0.09068 0.05762
8.60000 0.94470 0.00807 0.01180
8.70000 0.91207 0.20449 -0.00958
8.80000 0.97755 0.21510 -0.01719
8.90000 0.90665 -0.03613 -0.00960
9.00000 0.96659 -0.23688 0.01540
9.10000 0.92750 -0.09165 0.03963
9.20000 0.93024 0.00107 -0.03493
9.30000 0.93104 -0.12093 -0.03583
9.40000 0.90778 -0.12635 -0.00934
9.50000 0.90514 0.04640 -0.01493
9.60000 0.93123 0.07082 -0.01637
9.70000 0.87685 0.08424 0.04116
9.80000 0.95333 0.16957 -0.03755
9.90000 0.95142 0.11739 -0.05722
10.00000 0.91926 0.06052 -0.00113
10.10000 0.99011 -0.07707 0.03304
10.20000 0.94356 -0.18389 0.08222
10.30000 0.89995 -0.22309 -0.04521
10.40000 0.90812 -0.14149 0.00766
10.50000 0.95992 0.04695 0.05563
10.60000 0.95387 -0.02019 -0.06344
10.70000 0.88520 -0.07075 -0.02064
10.80000 0.98292 -0.01715 0.04933
10.90000 0.84585 -0.13422 -0.01335
11.00000 0.93033 -0.27013 0.00366
11.10000 0.96689 -0.14432 -0.01626
11.20000 0.93095 0.09322 -0.04202
11.30000 0.90559 0.06478 0.01619
11.40000 0.97497 0.03259 0.00681
11.50000 0.85681 0.12511 -0.03916
11.60000 0.99893 0.09413 -0.01868
11.70000 0.88120 -0.00098 0.01950
11.80000 0.97440 -0.00516 -0.00878
11.90000 0.86557 -0.06303 0.00875
12.00000 0.94789 -0.03077 0.04697
12.10000 0.90874 -0.11412 -0.08589
12.20000 0.95905 -0.05522 0.00497
12.30000 0.90152 0.01371 0.02558
12.40000 0.99537 0.12693 -0.01252
12.50000 0.90985 0.00237 0.03528
12.60000 0.93032 -0.02172 0.01009
12.70000 0.93779 -0.02896 -0.01708
12.80000 0.93806 -0.08617 0.02974
12.90000 0.89743 -0.09074 -0.02435
13.00000 0.96973 -0.05030 -0.03707
13.10000 0.84240 0.06218 0.02251
13.20000 0.92671 -0.11880 -0.03860
13.30000 0.95787 -0.14067 -0.00719
13.40000 0.91109 -0.04778 -0.03460
13.50000 0.95768 -0.09060 0.07774
13.60000 0.95643 -0.11243 -0.05020
13.70000 0.85808 0.01523 -0.00454
13.80000 0.97997 0.01968 0.02657
13.90000 0.88930 -0.12521 -0.04661
14.00000 0.91973 -0.07347 0.00647
14.10000 1.01471 -0.01253 -0.00019
14.20000 0.85064 0.06802 -0.00670
14.30000 0.97632 -0.08950 -0.05936
14.40000 0.89858 -0.28181 -0.00800
14.50000 0.93864 -0.27084 0.01664
14.60000 0.91738 -0.08333 0.02892
14.70000 0.96123 0.05818 0.01452
14.80000 0.96122 0.12208 -0.01273
14.90000 0.87462 0.07862 0.00240
15.00000 0.91818 -0.20038 0.03789
15.10000 0.96209 -0.03087 0.00878
15.20000 0.84562 -0.12261 -0.00461
15.30000 1.01478 -0.23707 -0.01848
15.40000 0.85819 -0.29974 0.00554
15.50000 0.91716 -0.22412 0.03864
15.60000 0.90037 -0.00861 0.01492
15.70000 0.95837 0.02740 -0.02454
15.80000 0.92259 -0.02907 0.01693
15.90000 0.90433 -0.14611 -0.01415
16.00000 0.90178 -0.10881 0.02148
16.10000 0.94483 0.00639 -0.04946
16.20000 0.90018 0.03295 -0.02566
16.30000 0.98768 0.30908 0.03871
16.40000 0.89695 0.08531 -0.02321
16.50000 0.98770 -0.05208 0.00952
16.60000 0.84643 0.04143 0.01821
16.70000 0.92101 0.17913 0.07634
16.80000 0.99902 0.26606 -0.02498
16.90000 0.88849 0.13667 0.00733
17.00000 0.97922 0.03091 0.00994
17.10000 0.89646 -0.14351 0.00838
17.20000 0.99879 -0.19805 -0.01023
17.30000 0.86396 0.14031 -0.01561
17.40000 0.96562 0.32913 -0.00458
17.50000 0.91543 0.16491 0.03725
17.60000 0.91880 0.05793 0.01031
17.70000 0.96570 0.09378 -0.03896
17.80000 0.88603 -0.00202 0.05027
17.90000 0.92166 0.01762 0.02991
18.00000 0.91407 0.07772 -0.03015
18.10000 0.90622 0.10454 -0.05371
18.20000 0.93076 0.06574 0.05997
18.30000 0.95208 0.04665 0.06353
18.40000 0.94051 0.13220 -0.04091
18.50000 0.91970 0.15889 -0.05116
18.60000 0.98797 0.24301 0.01309
18.70000 0.89899 0.37831 -0.03029
18.80000 0.96294 0.07855 -0.03040
18.90000 0.87368 -0.25409 0.05546
19.00000 0.95032 -0.23609 -0.01496
19.10000 0.88021 -0.14354 -0.05141
19.20000 0.96167 0.07189 0.02356
19.30000 0.92097 0.13207 0.01890
19.40000 0.91735 0.17149 0.01946
19.50000 0.92370 0.00448 -0.02948
19.60000 0.94883 -0.19220 -0.02332
19.70000 0.92410 -0.14675 0.01632
19.80000 0.92594 0.09753 -0.05970
19.90000 0.92266 0.11220 0.07260
20.00000 0.94967 0.13943 0.04449
20.10000 0.91107 0.05067 -0.00730
20.20000 0.99680 0.22578 -0.03843
20.30000 0.91101 0.29766 -0.02455
20.40000 0.88715 0.15823 0.03420
20.50000 0.98989 0.27626 -0.01998
20.60000 0.92303 0.11266 0.00609
20.70000 0.93874 0.09342 -0.04595
20.80000 0.91703 0.16664 0.03185
20.90000 0.94992 -0.03942 0.05299
21.00000 0.88660 -0.12509 -0.00454
21.10000 0.91739 -0.05993 -0.02733
21.20000 0.86696 0.07885 -0.02718
21.30000 0.93353 0.10975 -0.05079
21.40000 0.92270 -0.03956 0.00716
21.50000 0.91846 -0.24059 0.02233
21.60000 0.93621 -0.28989 -0.00671
21.70000 0.95597 -0.10549 -0.04139
21.80000 0.92808 -0.04540 0.02174
21.90000 0.88865 -0.01959 -0.00007
22.00000 0.96090 0.13765 -0.00570
22.10000 0.96087 0.24125 -0.01465
22.20000 0.89268 0.34007 -0.01434
22.30000 0.96885 0.43757 -0.00757
22.40000 0.83506 0.13825 0.02578
22.50000 0.96031 -0.11432 -0.03341
22.60000 0.92743 -0.27730 -0.02414
22.70000 0.96958 -0.15830 0.00715
22.80000 0.89830 0.04465 0.10174
22.90000 0.98871 0.08135 -0.01798
23.00000 0.82541 0.23815 -0.01446
23.10000 1.01728 0.20638 -0.01641
23.20000 0.85116 0.00595 -0.01923
23.30000 1.02012 -0.08514 -0.00765
23.40000 0.87455 -0.22801 -0.00125
23.50000 0.96944 -0.21637 0.05628
23.60000 0.91611 -0.14332 -0.02052
23.70000 0.92719 0.01219 0.00560
23.80000 0.94504 0.20668 0.04995
23.90000 0.83796 0.17029 -0.01335
24.00000 1.00514 0.02491 -0.01074
24.10000 0.91013 -0.11368 0.04630
24.20000 0.94789 -0.07527 -0.01602
24.30000 0.89395 -0.12634 -0.01734
24.40000 0.88020 -0.22848 0.01302
24.50000 0.94240 -0.28528 0.04234
24.60000 0.90114 -0.17887 -0.03774
24.70000 0.93693 -0.02687 -0.04178
24.80000 0.88845 0.13182 0.03294
24.90000 0.93527 0.08003 -0.01806
25.00000 0.96271 0.02387 0.02774
25.10000 0.92420 0.11305 0.02183
25.20000 0.92946 0.17235 -0.00663
25.30000 0.84051 0.20643 -0.05099
25.40000 0.94679 0.29047 0.01348
25.50000 0.89672 0.07313 -0.01352
25.60000 0.91803 0.06783 0.01313
25.70000 0.90816 0.18107 -0.01588
25.80000 0.93110 0.14297 -0.01545
25.90000 0.91591 -0.04165 -0.04171
26.00000 0.89327 -0.26966 -0.02986
26.10000 0.98874 -0.31573 0.03516
26.20000 0.93501 -0.11353 -0.01245
26.30000 0.91267 0.06504 0.00745
26.40000 0.91680 0.05734 0.02104
26.50000 0.93674 0.17156 0.02418
26.60000 0.90858 0.04633 0.05332
26.70000 0.92053 -0.07250 0.00757
26.80000 0.92189 -0.22101 0.03393
26.90000 0.89895 -0.27780 -0.00631
27.00000 0.88332 -0.11245 -0.03942
27.10000 0.92507 0.02873 0.02464
27.20000 0.98814 -0.03797 -0.02018
27.30000 0.91024 -0.12569 0.06268
27.40000 0.94346 -0.29541 -0.01865
27.50000 0.98712 -0.25814 0.02047
27.60000 0.85229 -0.03382 0.00950
27.70000 1.01448 0.08441 -0.04162
27.80000 0.86947 0.03627 0.05629
27.90000 0.96591 0.03215 0.03813
28.00000 0.88032 0.05138 -0.05071
28.10000 0.97085 0.07110 0.00326
28.20000 0.88074 -0.02235 0.08263
28.30000 0.95003 -0.02946 -0.02314
28.40000 0.91471 -0.14090 -0.01165
28.50000 0.92332 -0.25064 0.02056
28.60000 0.92694 -0.21967 0.03460
28.70000 0.92265 -0.18995 -0.05004
28.80000 0.95843 0.06606 -0.03660
28.90000 0.96299 0.09239 0.03428
29.00000 0.91340 0.04833 0.01133
29.10000 0.96929 0.07432 -0.05272
29.20000 0.95797 0.06993 -0.05388
29.30000 0.81466 0.09183 -0.00052
29.40000 0.97707 0.16224 -0.03856
29.50000 0.87242 0.34923 0.00974
29.60000 0.89140 0.24743 -0.00839
29.70000 0.96999 0.08769 0.01906
29.80000 0.87468 0.15627 -0.00438
29.90000 0.96476 0.22542 0.01314
30.00000 0.88748 0.15671 0.05061
30.10000 0.95270 0.01745 -0.01029
30.20000 0.94701 -0.22122 -0.06853
30.30000 0.85035 -0.29463 0.04012
30.40000 0.97379 -0.13484 0.01034
30.50000 0.87862 0.12824 0.04344
30.60000 0.94496 0.03498 -0.05349
30.70000 0.88198 -0.11378 0.02542
30.80000 0.94948 -0.31083 0.03202
30.90000 0.97197 -0.06466 0.04090
31.00000 0.90061 -0.03322 0.00935
31.10000 0.95854 0.01178 -0.01013
31.20000 0.88299 -0.10404 0.01540
31.30000 0.94815 0.00560 -0.00029
31.40000 0.89373 0.04568 -0.03960
31.50000 0.96694 -0.03049 -0.03053
31.60000 0.88601 -0.05382 0.01243
31.70000 0.91328 0.01376 0.07731
31.80000 0.92117 -0.05340 -0.04004
31.90000 0.95116 -0.04332 0.00088
32.00000 0.92461 0.01650 -0.02609
32.10000 0.94816 0.04459 -0.00552
32.20000 0.85593 0.02201 0.04572
32.30000 0.95730 -0.00482 0.06202
32.40000 0.90070 -0.05779 -0.09289
32.50000 0.93721 0.09399 0.02662
32.60000 1.01832 0.05869 -0.01021
32.70000 0.88920 -0.09453 -0.03506
32.80000 0.90470 -0.11340 -0.05416
32.90000 0.93048 0.04995 0.01219
33.00000 0.91103 0.00971 0.00758
33.10000 0.92187 0.08768 0.01599
33.20000 0.93814 0.12684 -0.01901
33.30000 0.93776 0.13310 0.01179
33.40000 0.89012 -0.04273 0.00343
33.50000 0.96166 -0.03633 -0.08324
33.60000 0.93210 0.01797 -0.01611
33.70000 0.92122 0.01063 0.04886
33.80000 0.94827 0.04022 0.08223
33.90000 0.95336 0.11351 -0.05909
34.00000 0.98657 0.10654 0.00213
34.10000 0.87720 0.00730 0.01286
34.20000 0.94177 0.02262 -0.00773
34.30000 0.88966 0.18054 0.00514
34.40000 0.90828 0.09392 0.00848
34.50000 0.97523 -0.07146 -0.04380
34.60000 0.81052 -0.41534 -0.00724
34.70000 0.94767 -0.53930 0.04834
34.80000 0.93264 -0.43516 0.03407
34.90000 0.93345 -0.31109 -0.02934
35.00000 1.00737 -0.37035 0.02838
35.10000 0.90185 -0.11110 -0.01884
35.20000 0.89140 0.05741 -0.05713
35.30000 0.96901 -0.12138 0.02210
35.40000 0.88941 -0.14192 -0.00184
35.50000 0.92967 0.02193 -0.00442
35.60000 0.92753 0.06127 -0.02097
35.70000 0.94313 0.02174 0.02861
35.80000 0.92228 -0.10922 0.04044
35.90000 0.95843 -0.11720 -0.01739
36.00000 0.88234 -0.36677 0.00785
36.10000 0.88225 -0.39134 -0.01905
36.20000 0.92921 -0.19033 0.04137
36.30000 0.88262 -0.08043 0.04012
36.40000 0.90524 -0.05862 -0.02155
36.50000 0.94743 -0.13148 -0.01587
36.60000 0.84138 -0.00306 -0.02202
36.70000 1.03579 -0.01746 -0.05492
36.80000 0.81473 0.17969 0.05075
36.90000 1.00818 0.16010 0.02448
37.00000 0.91620 0.16093 0.01794
37.10000 0.86731 0.11207 0.00661
37.20000 0.96821 -0.03581 -0.00997
37.30000 0.88902 -0.12063 0.00419
37.40000 0.95201 -0.20034 -0.03327
37.50000 0.88050 -0.07264 0.03113
37.60000 0.94780 0.12901 0.05986
37.70000 0.91634 0.14016 -0.00400
37.80000 0.92013 -0.08311 -0.01521
37.90000 0.93816 -0.16501 0.00708
38.00000 0.83250 0.01892 0.00324
38.10000 0.97785 -0.04879 0.04807
38.20000 0.90141 -0.22848 -0.05368
38.30000 0.93518 -0.37783 -0.01320
38.40000 0.89773 -0.23793 0.00106
38.50000 0.93744 -0.01983 0.02994
38.60000 0.97569 0.04879 -0.07446
38.70000 0.91171 0.01266 -0.01870
38.80000 0.88250 0.00151 0.02288
38.90000 0.96562 0.17603 -0.03132
39.00000 0.89399 0.34778 0.00138
39.10000 0.94233 0.44614 0.04183
39.20000 0.93578 0.24733 0.00818
39.30000 0.95840 0.18246 -0.06430
39.40000 0.87884 -0.03289 -0.07188
39.50000 0.93919 -0.21479 0.07890
39.60000 0.94685 -0.12296 -0.02027
39.70000 0.96370 0.00757 0.00308
39.80000 0.85958 -0.08123 -0.00605
39.90000 0.99631 -0.06300 -0.05244
40.00000 0.87527 -0.01601 0.06410
40.10000 0.89196 0.01640 0.03533
40.20000 0.92554 0.09242 -0.00461
40.30000 0.95196 0.14049 0.03697
40.40000 0.82392 0.01064 -0.01318
40.50000 1.02386 0.07897 -0.00180
40.60000 0.91120 0.01228 -0.02504
40.70000 1.03223 -0.10314 0.02727
40.80000 0.87576 -0.17475 -0.03452
40.90000 0.93360 -0.09816 -0.03833
41.00000 0.99348 0.20397 0.06172
41.10000 0.85192 0.14944 0.05155
41.20000 0.96368 -0.16075 -0.02282
41.30000 0.95764 -0.35374 0.05247
41.40000 0.88281 -0.18490 0.01305
41.50000 0.94505 -0.03573 0.00961
41.60000 0.93659 -0.01525 -0.01842
41.70000 0.92224 0.12594 0.02089
41.80000 0.92454 0.14573 0.00950
41.90000 0.94044 -0.04915 0.00029
42.00000 0.93006 -0.23037 0.00076
42.10000 0.92884 -0.21760 -0.04584
42.20000 0.98359 0.03103 0.01271
42.30000 0.88564 0.22011 -0.00831
42.40000 1.00991 0.19728 0.01664
42.50000 0.89524 0.27163 -0.04842
42.60000 0.93800 0.18899 0.02559
42.70000 0.89003 0.13604 -0.03945
42.80000 0.92761 0.08829 -0.03934
42.90000 0.97699 -0.01188 0.05930
43.00000 0.85037 -0.07085 -0.00661
43.10000 0.98611 0.10122 -0.04245
43.20000 0.86994 0.08628 0.00294
43.30000 0.88903 0.00104 -0.00180
43.40000 1.01576 -0.07589 0.01637
43.50000 0.88373 -0.20776 0.00312
43.60000 0.90525 -0.04894 -0.02831
43.70000 0.97934 0.14034 -0.02622
43.80000 0.87854 -0.02969 0.03247
43.90000 0.95217 -0.18977 -0.00653
44.00000 0.92044 -0.08824 -0.00599
44.10000 0.91913 -0.09679 0.07088
44.20000 0.91842 -0.21965 -0.00430
44.30000 0.87617 0.10884 -0.07712
44.40000 0.90819 0.35861 0.00835
44.50000 0.98106 0.15873 0.01561
44.60000 0.92175 -0.15510 -0.00464
44.70000 0.90635 -0.19576 0.04913
44.80000 0.94515 -0.10580 0.00174
44.90000 0.88298 -0.19043 -0.01231
45.00000 0.89909 -0.23238 -0.07572
45.10000 0.94764 -0.12589 0.03741
45.20000 0.94269 0.01412 -0.01452
45.30000 0.94549 0.17944 -0.05317
45.40000 0.93922 0.26002 -0.01793
45.50000 0.91989 0.07749 0.00428
45.60000 0.96681 -0.05201 0.01425
45.70000 0.89685 0.01206 -0.05861
45.80000 1.00145 -0.02720 -0.01259
45.90000 0.86421 -0.11591 0.06610
46.00000 0.98823 0.05635 0.05904
46.10000 0.91478 0.03008 -0.03223
46.20000 0.85862 -0.16017 -0.01465
46.30000 0.97174 -0.34672 -0.00046
46.40000 0.88915 -0.33307 0.00096
46.50000 0.94598 -0.05342 -0.01343
46.60000 0.88624 0.03952 0.00999
46.70000 0.91820 -0.16814 0.01317
46.80000 0.94781 -0.37677 -0.00493
46.90000 0.98094 -0.45727 -0.01185
47.00000 0.93812 -0.07394 -0.04737
47.10000 0.94856 0.14134 -0.00122
47.20000 0.96095 0.18804 -0.01770
47.30000 0.85989 0.14170 0.04394
47.40000 0.97883 -0.00836 -0.00762
47.50000 0.91367 -0.13994 -0.00932
47.60000 1.00190 -0.13597 0.06062
47.70000 0.90906 -0.22709 0.02214
47.80000 0.90796 -0.13710 -0.01052
47.90000 0.94693 0.01274 -0.02246
48.00000 0.88458 0.14777 0.05512
48.10000 0.99578 0.04038 0.00950
48.20000 0.90587 -0.15819 -0.02783
48.30000 0.91691 -0.25011 -0.00660
48.40000 0.94170 -0.13609 -0.01296
48.50000 0.95194 0.01109 0.01126
48.60000 0.89086 0.02014 0.01412
48.70000 0.93786 -0.16491 -0.03527
48.80000 0.92278 -0.17440 -0.02327
48.90000 0.89114 -0.08629 0.01478
49.00000 0.89224 0.06526 -0.03916
49.10000 0.92101 0.07833 -0.03135
49.20000 0.92500 -0.08311 0.01549
49.30000 0.95533 -0.20690 0.05348
49.40000 0.93070 -0.26264 0.00906
49.50000 0.96245 -0.25559 -0.02685
49.60000 0.91357 -0.18137 0.00458
49.70000 0.85418 0.15790 0.02827
49.80000 1.00311 0.27264 0.01286
49.90000 0.83455 0.30518 -0.00126
50.00000 0.91636 0.03796 -0.02982
50.10000 0.92640 -0.27627 -0.02830
50.20000 0.91330 -0.07454 0.03475
50.30000 0.93997 0.22135 -0.04578
50.40000 0.99137 0.32317 -0.03228
50.50000 0.87687 0.20882 0.03122
50.60000 0.95669 0.06636 0.02487
50.70000 0.91135 0.06133 -0.04356
50.80000 0.93897 0.07751 -0.01040
50.90000 0.84026 0.11342 0.01111
51.00000 0.92278 -0.06572 0.02875
51.10000 0.92540 -0.04987 -0.01122
51.20000 0.92513 -0.06141 0.00986
51.30000 0.89371 -0.08091 0.00516
51.40000 0.90543 0.02222 -0.03567
51.50000 1.00430 0.00477 0.02881
51.60000 0.91032 -0.01420 0.05071
51.70000 0.88427 0.02500 -0.00637
51.80000 0.96909 0.03012 0.01363
51.90000 0.85907 -0.08681 0.04186
52.00000 0.98200 0.00861 -0.05595
52.10000 0.89676 0.00645 0.05506
52.20000 0.92199 -0.06321 0.01041
52.30000 0.93528 -0.09672 -0.05324
52.40000 0.89263 -0.01505 -0.03881
52.50000 0.93609 -0.10615 0.03748
52.60000 0.90904 -0.30123 -0.02285
52.70000 0.94189 -0.28489 -0.00113
52.80000 0.97738 0.08100 0.00990
52.90000 0.88916 0.32530 0.01422
53.00000 0.94829 0.30548 0.04233
53.10000 0.89632 0.23524 -0.03845
53.20000 0.88372 0.22226 -0.04522
53.30000 0.97935 0.13851 0.08580
53.40000 0.90364 -0.05447 0.01526
53.50000 0.92094 -0.23625 -0.01861
53.60000 0.91882 -0.02214 -0.00309
53.70000 0.97578 -0.10942 0.08356
53.80000 0.91846 -0.18201 0.01269
53.90000 0.90501 -0.09860 -0.01976
54.00000 0.97684 0.02226 -0.02086
54.10000 0.90015 0.03476 -0.00798
54.20000 0.95780 0.08707 0.00422
54.30000 0.93270 -0.06707 0.01364
54.40000 0.95887 -0.32304 0.00436
54.50000 0.91110 -0.21287 -0.02033
54.60000 1.02454 -0.09207 0.02945
54.70000 0.86572 -0.07570 0.02519
54.80000 0.97911 -0.03692 0.01032
54.90000 0.89581 0.06378 -0.00731
55.00000 0.94380 0.08666 -0.04367
55.10000 0.89011 -0.06387 0.03761
55.20000 0.97679 -0.12676 -0.00191
55.30000 0.95208 -0.16930 0.04258
55.40000 0.89709 -0.15671 0.01781
55.50000 0.96732 0.04008 0.01637
55.60000 0.88145 0.09423 0.00380
55.70000 0.92053 -0.03274 -0.00785
55.80000 0.93231 0.23642 0.00621
55.90000 0.96312 0.23685 -0.00205
56.00000 0.91338 0.18136 0.00336
56.10000 0.99418 0.09248 -0.02879
56.20000 0.87005 -0.01284 -0.01963
56.30000 0.94825 0.04073 0.02719
56.40000 0.92792 0.01825 -0.01176
56.50000 0.92743 0.13466 -0.02923
56.60000 0.90735 0.05820 -0.00061
56.70000 0.89929 0.07128 0.01363
56.80000 0.96917 0.16153 -0.02407
56.90000 0.88538 0.04921 0.02021
57.00000 0.97469 -0.06023 -0.00622
57.10000 0.90614 -0.08435 -0.02492
57.20000 0.84333 -0.17878 0.00906
57.30000 0.97691 -0.26076 0.01967
57.40000 0.94500 -0.25984 0.00776
57.50000 0.96295 -0.10457 -0.03573
57.60000 0.92552 -0.04310 0.03048
57.70000 0.94502 0.20182 -0.01972
57.80000 0.89667 0.38975 0.00896
57.90000 0.97345 0.23847 0.01346
58.00000 0.87608 0.01024 0.01926
58.10000 0.93614 -0.05381 0.00172
58.20000 0.93245 -0.11935 0.00260
58.30000 0.87130 -0.05830 -0.04852
58.40000 0.93891 -0.01330 0.02865
58.50000 0.90786 0.15141 0.00738
58.60000 0.94574 0.24977 0.04397
58.70000 0.90689 0.09702 0.02562
58.80000 0.93580 0.00667 0.03983
58.90000 0.91713 0.11574 -0.04857
59.00000 0.92118 0.17082 0.05278
59.10000 0.91848 0.11346 0.04865
59.20000 0.99074 0.14448 0.03585
59.30000 0.89815 -0.08941 -0.04331
59.40000 0.96395 -0.21158 0.05916
59.50000 0.89887 -0.18078 -0.00390
59.60000 0.95312 -0.22397 -0.03147
59.70000 0.92668 -0.18699 -0.03024
59.80000 0.91092 -0.07449 -0.00083
59.90000 0.96889 0.05391 -0.02290
60.00000 0.92053 0.12768 0.07024
60.10000 0.92248 0.05246 -0.03578
60.20000 0.91413 0.00817 -0.02737
60.30000 0.93657 0.08728 -0.00759
60.40000 0.85512 0.14250 0.02779
60.50000 1.02969 -0.01598 -0.04742
60.60000 0.84851 -0.08808 -0.00850
60.70000 0.95552 -0.19571 0.01112
60.80000 0.96179 -0.13382 0.00321
60.90000 0.91420 -0.04044 -0.03871
61.00000 0.96322 -0.15397 0.03231
61.10000 0.88559 0.01057 -0.00856
61.20000 0.97606 0.13026 0.00791
61.30000 0.92416 0.05352 -0.03086
61.40000 0.90913 0.05271 -0.02477
61.50000 0.93023 -0.17262 0.00829
61.60000 0.95332 -0.13877 -0.04886
61.70000 0.91679 0.09673 0.03864
61.80000 0.94311 0.21026 0.01801
61.90000 0.93592 0.14456 -0.00145
62.00000 0.91670 0.15624 0.01244
62.10000 0.93949 0.09065 0.00232
62.20000 0.89529 0.13600 -0.05004
62.30000 0.91144 0.22881 0.01951
62.40000 1.00734 0.07843 -0.03380
62.50000 0.89584 0.03936 -0.01255
62.60000 0.94848 0.04587 0.03013
62.70000 0.93772 0.08380 -0.03113
62.80000 0.92153 0.05316 0.03793
62.90000 0.98033 0.09103 -0.02161
63.00000 0.90234 -0.05079 -0.00066
63.10000 0.90661 -0.18487 0.00643
63.20000 0.94671 -0.44556 0.01608
63.30000 0.93593 -0.47045 -0.00981
63.40000 0.94132 -0.33370 -0.00457
63.50000 0.94744 -0.09440 -0.03304
63.60000 0.91297 -0.10708 0.09463
63.70000 0.96227 -0.17390 0.00641
63.80000 0.88189 -0.15772 0.00614
63.90000 0.94556 -0.06630 0.01120
64.00000 0.89407 -0.12686 0.03619
64.10000 0.88031 -0.25233 -0.03097
64.20000 0.92221 0.15307 0.03428
64.30000 0.89397 0.29317 -0.03635
64.40000 0.98923 0.23496 0.04992
64.50000 0.90127 0.12782 -0.00753
64.60000 0.91921 0.06792 -0.06595
64.70000 0.97042 -0.05391 0.07977
64.80000 0.89343 -0.08186 0.04686
64.90000 0.93953 -0.04293 -0.01847
65.00000 0.87392 -0.21436 -0.00224
65.10000 1.02020 -0.17284 0.01501
65.20000 0.85983 -0.08279 0.02775
65.30000 1.03906 -0.02098 -0.06280
65.40000 0.78098 -0.11037 0.04340
65.50000 1.00180 -0.22061 0.04363
65.60000 0.90697 -0.16241 -0.03995
65.70000 0.96158 0.10357 -0.02704
65.80000 0.93531 0.22520 0.03648
65.90000 0.88259 0.14708 0.02496
66.00000 1.02815 -0.04955 -0.01242
66.10000 0.86651 -0.08517 -0.01640
66.20000 0.90512 -0.05415 0.00405
66.30000 0.89711 0.00241 -0.01634
66.40000 0.94529 -0.04860 0.01024
66.50000 0.90036 0.06863 0.01303
66.60000 0.92887 -0.06669 -0.01673
66.70000 0.87474 -0.18507 -0.00683
66.80000 0.95365 -0.11163 0.02109
66.90000 0.89219 -0.00454 -0.00408
67.00000 0.92102 0.01122 -0.00018
67.10000 0.96681 -0.02714 0.07183
67.20000 0.88799 -0.26252 -0.05384
67.30000 0.91062 -0.30059 0.02751
67.40000 0.86282 -0.29363 0.04490
67.50000 0.94592 -0.16146 -0.07782
67.60000 0.90705 -0.05442 -0.00319
67.70000 0.92346 0.03790 0.06728
67.80000 0.92768 0.12945 -0.05463
67.90000 0.91264 0.13069 -0.01937
68.00000 0.93508 0.15630 -0.00154
68.10000 0.91134 0.04663 -0.00858
68.20000 0.93084 -0.05229 -0.03359
68.30000 0.88488 0.14248 0.02825
68.40000 1.00534 0.00524 -0.01763
68.50000 0.94024 0.01000 -0.03694
68.60000 0.91403 -0.01147 0.06737
68.70000 0.90501 -0.04556 0.00201
68.80000 0.94887 -0.14658 0.01640
68.90000 0.93082 -0.32139 0.04117
69.00000 0.94323 -0.18414 -0.01160
69.10000 0.92262 0.01685 -0.04745
69.20000 0.89767 0.12127 0.00150
69.30000 0.95606 0.17578 0.07967
69.40000 0.97054 0.16791 -0.00392
69.50000 0.91114 0.25273 -0.03234
69.60000 0.96770 0.20576 -0.03619
69.70000 0.86054 0.07795 -0.01836
69.80000 0.94935 -0.13030 -0.01316
69.90000 0.84792 -0.25634 0.02144
70.00000 0.94417 -0.28108 -0.01494
70.10000 0.93229 -0.12503 -0.03935
70.20000 0.88576 0.19614 0.03985
70.30000 1.01521 0.24677 -0.01818
70.40000 0.86715 -0.03751 -0.04968
70.50000 0.91798 0.02148 0.05194
70.60000 0.91654 0.25806 0.03208
70.70000 0.94768 0.30192 0.00283
70.80000 0.89400 0.20036 -0.00653
70.90000 0.90896 0.17014 0.04432
71.00000 0.94772 0.20407 0.01664
71.10000 0.90845 -0.00617 -0.07066
71.20000 0.95103 -0.10997 0.00717
71.30000 0.85533 -0.12666 0.03425
71.40000 0.96278 -0.18767 0.01858
71.50000 0.89462 -0.22830 -0.00268
71.60000 0.93446 -0.10329 -0.01535
71.70000 0.91118 -0.01125 -0.01747
71.80000 0.95588 -0.03215 0.01790
71.90000 0.90991 -0.09092 -0.00598
72.00000 0.96279 -0.05736 -0.00988
72.10000 0.92301 -0.05111 -0.00145
72.20000 0.92017 0.09341 0.03940
72.30000 0.96533 0.06566 0.00452
72.40000 0.85665 -0.05595 0.04094
72.50000 0.94568 0.11746 -0.06691
72.60000 0.94109 0.10897 0.02985
72.70000 0.93297 0.05578 0.05446
72.80000 0.88454 0.16794 0.00147
72.90000 0.95048 0.11256 -0.01322
73.00000 0.86444 0.10492 -0.04274
73.10000 0.99590 0.01033 0.01266
73.20000 0.88162 -0.05116 -0.03493
73.30000 1.03343 -0.01334 0.02175
73.40000 0.90933 -0.00816 -0.02191
73.50000 0.93158 0.14123 0.01951
73.60000 0.92779 0.22472 -0.04010
73.70000 0.91794 0.06023 -0.02413
73.80000 1.00089 -0.01196 0.02575
73.90000 0.87554 -0.00252 0.02578
74.00000 0.93898 0.11548 0.01797
74.10000 0.91446 0.31322 -0.05614
74.20000 0.90896 0.14722 -0.03452
74.30000 0.94346 -0.06823 0.00091
74.40000 0.93666 -0.27699 -0.03187
74.50000 0.90737 -0.27277 -0.04453
74.60000 0.91889 -0.11848 0.04415
74.70000 0.91842 -0.07507 -0.00240
74.80000 0.94363 -0.02398 0.00636
74.90000 0.93108 0.13750 -0.03528
75.00000 0.97522 0.15309 0.01052
75.10000 0.89738 0.25361 -0.01826
75.20000 0.93233 0.27811 -0.06072
75.30000 0.91649 0.08619 0.03504
75.40000 0.89215 -0.11984 0.02070
75.50000 0.96340 -0.18083 0.01385
75.60000 0.87385 -0.06075 -0.09479
75.70000 0.94178 -0.15892 0.03174
75.80000 0.86162 -0.06682 0.02559
75.90000 0.93896 -0.14920 -0.01288
76.00000 0.96657 -0.07112 0.00500
76.10000 0.85169 -0.21974 -0.01728
76.20000 0.95693 -0.24905 0.05671
76.30000 0.94020 -0.31461 -0.01559
76.40000 0.96655 -0.23913 0.00551
76.50000 0.93126 0.04138 0.01660
76.60000 0.93221 0.22192 0.04268
76.70000 0.93850 0.09269 0.00199
76.80000 0.96635 0.07759 -0.05895
76.90000 0.95189 -0.05519 0.04087
77.00000 0.92842 -0.06366 -0.03204
77.10000 0.94286 0.02613 0.01540
77.20000 0.91937 0.10132 -0.00013
77.30000 0.89336 0.00746 -0.01843
77.40000 0.97484 -0.14832 0.05388
77.50000 0.96128 -0.25274 -0.06407
77.60000 0.90008 -0.16401 -0.00151
77.70000 0.87132 -0.07769 0.01945
77.80000 0.92037 0.06889 0.04545
77.90000 0.85824 0.19879 -0.00640
78.00000 0.97553 0.15602 -0.01193
78.10000 0.91870 0.02519 -0.01399
78.20000 0.90293 -0.19052 0.07202
78.30000 0.98123 -0.07720 0.00843
78.40000 0.85893 -0.01408 -0.06753
78.50000 0.94489 -0.07951 0.00796
78.60000 0.93812 0.05705 -0.04186
78.70000 0.96116 0.01202 0.02409
78.80000 0.92041 0.02178 0.00924
78.90000 0.94308 0.06678 -0.06146
79.00000 0.96310 -0.02957 0.03754
79.10000 0.87504 -0.24088 0.02029
79.20000 0.95592 -0.07804 0.03044
79.30000 0.83209 0.01363 -0.04011
79.40000 0.99920 0.04681 0.02100
79.50000 0.91367 0.19157 0.03393
79.60000 0.94760 0.24709 0.02048
79.70000 0.92472 0.02406 0.04536
79.80000 0.92153 -0.15673 -0.04531
79.90000 0.95725 -0.01398 0.01261
80.00000 0.90287 -0.04205 0.01012
80.10000 0.89872 -0.03645 -0.01551
80.20000 0.94534 -0.26101 0.07096
80.30000 0.88656 -0.22774 -0.03984
80.40000 0.95944 -0.18502 -0.03030
80.50000 0.92623 -0.31501 0.01147
80.60000 0.93170 -0.23355 0.04653
80.70000 0.91480 -0.06614 -0.01588
80.80000 0.92779 0.11049 -0.00522
80.90000 0.98627 0.25452 0.05389
81.00000 0.91813 0.22923 -0.01121
81.10000 0.93350 0.06083 0.06683
81.20000 0.94237 0.00167 -0.04354
81.30000 0.87940 0.22525 -0.07795
81.40000 0.98004 0.15910 -0.04170
81.50000 0.85834 0.16211 0.00107
81.60000 0.99396 0.01785 0.02529
81.70000 0.82830 -0.14351 0.04266
81.80000 0.97492 -0.09674 -0.00263
81.90000 0.91375 -0.08825 -0.00970
82.00000 0.90946 -0.01645 -0.01191
82.10000 0.86854 0.27145 0.00757
82.20000 0.90621 0.18313 -0.04039
82.30000 0.93490 0.05328 -0.05115
82.40000 0.89028 0.00793 0.09996
82.50000 0.92292 -0.07267 0.00008
82.60000 0.94326 -0.08401 -0.02038
82.70000 0.91273 0.00228 -0.01338
82.80000 0.85664 -0.01895 0.05958
82.90000 0.99528 -0.11129 -0.04242
83.00000 0.84867 -0.28708 -0.00126
83.10000 0.95284 -0.14754 0.02194
83.20000 0.90000 0.12963 -0.07043
83.30000 0.93839 0.24238 -0.06241
83.40000 0.95413 0.01784 0.07319
83.50000 0.92650 0.08635 -0.01782
83.60000 0.88927 0.08057 -0.10928
83.70000 0.94212 -0.03690 -0.01590
83.80000 0.93321 0.06538 0.04570
83.90000 0.98356 0.08743 -0.02243
84.00000 0.87230 0.03580 -0.02814
84.10000 0.97484 0.07487 -0.02206
84.20000 0.89949 0.21847 -0.02267
84.30000 0.92289 0.28740 0.04448
84.40000 0.94569 0.03456 -0.01496
84.50000 0.89883 -0.18082 -0.02280
84.60000 0.99183 -0.14788 0.04105
84.70000 0.85912 -0.02516 -0.03952
84.80000 0.98097 0.01072 0.01930
84.90000 0.94283 -0.08084 0.01166
85.00000 0.89228 -0.08954 0.01909
85.10000 0.94830 0.01160 -0.10214
85.20000 0.90382 0.03532 -0.02213
85.30000 0.94299 -0.12897 -0.04207
85.40000 0.96048 -0.16724 -0.00735
85.50000 0.91678 -0.03826 -0.02619
85.60000 0.92426 0.13282 0.01747
85.70000 0.93177 0.22188 -0.00307
85.80000 0.90613 0.30173 -0.03278
85.90000 0.97390 0.14577 0.02662
86.00000 0.95890 -0.00194 -0.01043
86.10000 0.93868 -0.18936 -0.02834
86.20000 0.94479 -0.17197 -0.00840
86.30000 0.88169 0.06918 -0.01943
86.40000 0.99359 0.14482 0.02266
86.50000 0.89196 -0.09513 0.02945
86.60000 0.93086 -0.29904 -0.07256
86.70000 0.95546 -0.27960 0.03245
86.80000 0.90071 -0.11250 -0.02448
86.90000 0.96343 0.09438 -0.05769
87.00000 0.84084 0.03414 0.09720
87.10000 0.96307 -0.03126 0.01469
87.20000 0.91318 -0.21798 -0.04117
87.30000 0.83524 -0.39380 0.00101
87.40000 0.94201 -0.15697 0.01596
87.50000 0.89952 0.08856 0.02810
87.60000 0.90798 0.17534 0.06532
87.70000 0.92354 0.16663 -0.04307
87.80000 0.95324 -0.13592 -0.01823
87.90000 0.93878 0.00179 0.08663
88.00000 0.91660 0.16332 -0.03202
88.10000 0.99432 0.21392 -0.00732
88.20000 0.94594 0.18900 -0.01478
88.30000 0.92979 -0.09279 -0.00376
88.40000 0.88705 0.02245 -0.00856
88.50000 0.96745 0.23411 0.01931
88.60000 0.91533 0.16748 0.00254
88.70000 0.93775 0.06989 0.05944
88.80000 0.87398 0.08288 0.00298
88.90000 1.02830 0.07062 -0.02771
89.00000 0.92766 0.12343 0.06244
89.10000 0.87089 0.19556 -0.02028
89.20000 0.93586 0.04845 -0.03413
89.30000 0.95035 0.03643 0.00832
89.40000 0.96016 0.14191 0.06875
89.50000 0.88768 -0.14403 -0.00859
89.60000 0.91363 -0.14878 -0.02544
89.70000 0.97460 -0.17048 -0.01139
89.80000 0.88522 -0.01988 0.02033
89.90000 0.94652 0.18230 -0.00192
90.00000 0.86682 0.20376 0.04252
90.10000 1.00355 0.33648 -0.03694
90.20000 0.80694 0.42106 -0.02033
90.30000 1.02675 0.03678 0.01616
90.40000 0.89684 -0.16208 0.02338
90.50000 0.92204 -0.23335 0.00596
90.60000 0.94312 -0.12807 -0.01182
90.70000 0.87099 -0.00281 0.02308
90.80000 1.00023 0.04675 -0.01383
90.90000 0.86816 -0.06711 0.01608
91.00000 0.99771 -0.05843 0.01276
91.10000 0.80979 0.05021 0.03556
91.20000 0.96888 0.06570 -0.04260
91.30000 0.91081 0.00494 0.03992
91.40000 0.89679 0.11636 0.01269
91.50000 0.90538 0.07099 -0.03007
91.60000 0.95831 -0.20055 -0.01415
91.70000 0.89246 -0.39882 -0.03454
91.80000 0.95574 -0.37614 0.02630
91.90000 0.86776 -0.09191 -0.00170
92.00000 0.89857 0.15965 0.01941
92.10000 0.95627 0.18268 0.04676
92.20000 0.89370 0.02645 -0.02808
92.30000 0.97476 0.01752 0.02026
92.40000 0.86837 -0.07272 0.01843
92.50000 1.01083 -0.15877 0.05793
92.60000 0.89149 -0.16829 0.05422
92.70000 0.93024 -0.12502 -0.02269
92.80000 0.95923 -0.01589 -0.02332
92.90000 0.85588 0.02165 -0.01484
93.00000 0.97281 -0.11225 0.03032
93.10000 0.84374 0.06449 0.05591
93.20000 0.96653 0.19562 -0.00447
93.30000 0.90279 -0.00484 -0.05672
93.40000 0.92180 0.03045 0.04481
93.50000 0.97939 0.03091 0.00224
93.60000 0.81135 0.09019 -0.01659
93.70000 1.00461 0.13529 0.01573
93.80000 0.88233 0.05377 -0.00208
93.90000 0.97411 -0.05812 0.00903
94.00000 0.93006 0.03432 -0.00014
94.10000 0.90259 0.01144 0.07909
94.20000 0.92358 -0.01165 -0.06147
94.30000 0.80798 -0.05181 0.03088
94.40000 1.01517 -0.04295 -0.01769
94.50000 0.91213 -0.20507 0.01435
94.60000 0.85135 -0.07881 -0.01356
94.70000 0.96001 0.25940 -0.06230
94.80000 0.94432 0.47015 0.00176
94.90000 0.97029 0.29236 -0.00095
95.00000 0.90270 -0.15258 0.09772
95.10000 1.00019 -0.22027 -0.02103
95.20000 0.87630 -0.07327 0.03248
95.30000 0.91455 0.02982 -0.00484
95.40000 0.95382 0.06260 -0.01806
95.50000 0.89097 0.06264 0.00720
95.60000 0.93579 0.17828 -0.01774
95.70000 0.87424 0.24121 -0.03715
95.80000 0.94663 0.15814 0.03463
95.90000 0.87871 0.01369 0.00699
96.00000 0.93599 -0.09473 -0.03695
96.10000 0.96714 -0.08097 0.00065
96.20000 0.93080 0.02572 0.01830
96.30000 0.91327 0.07628 0.02388
96.40000 0.86549 0.17334 -0.00370
96.50000 0.97558 0.34650 0.11641
96.60000 0.89981 0.32345 -0.04985
96.70000 0.95318 0.21250 -0.06382
96.80000 0.92610 0.18263 0.05649
96.90000 0.94197 -0.04483 0.04754
97.00000 0.92585 -0.16858 -0.06517
97.10000 0.92447 -0.01853 -0.04829
97.20000 0.93203 0.13306 0.03175
97.30000 0.96478 0.17017 0.01402
97.40000 0.83765 -0.04080 -0.07007
97.50000 0.96535 -0.04678 0.01983
97.60000 0.87207 0.21477 0.03623
97.70000 1.01940 0.24620 -0.02373
97.80000 0.90329 0.18570 -0.03894
97.90000 0.85332 0.32951 -0.00514
98.00000 0.99300 0.30897 0.07361
98.10000 0.92558 0.14241 -0.02719
98.20000 0.93290 -0.08582 -0.03875
98.30000 0.90832 -0.14783 -0.00081
98.40000 0.90460 -0.16495 0.05482
98.50000 0.92739 -0.09110 -0.01449
98.60000 0.94811 0.04262 -0.08300
98.70000 0.92546 0.10615 0.03289
98.80000 0.94973 -0.11319 0.01066
98.90000 0.84272 -0.05548 -0.00916
99.00000 1.00364 -0.00435 -0.00826
99.10000 0.86612 -0.01468 0.02187
99.20000 0.95267 -0.05782 -0.00381
99.30000 0.92546 -0.16727 0.01420
99.40000 0.88613 -0.07078 0.00541
99.50000 0.90570 0.05204 0.04578
99.60000 0.99311 0.04245 -0.04051
99.70000 0.91595 0.07556 0.04016
99.80000 0.87919 -0.00839 -0.04663
99.90000 0.95899 -0.16814 -0.00314
100.00000 0.81880 -0.21804 0.02162
100.10000 0.92445 -0.10898 0.01457
100.20000 0.95283 -0.15943 -0.03433
100.30000 0.95284 -0.15984 0.01563
100.40000 0.95207 0.08743 0.00995
100.50000 0.89462 0.37030 0.01339
100.60000 0.96459 0.13063 -0.00143
100.70000 0.92310 0.03691 -0.04070
100.80000 0.92191 0.11174 0.00652
100.90000 0.93320 0.09813 -0.00725
101.00000 0.91418 0.37720 0.02206
101.10000 0.91939 0.32323 -0.00848
101.20000 1.00904 0.24301 -0.02174
101.30000 0.76335 0.37025 -0.02065
101.40000 1.02643 0.32848 0.02248
101.50000 0.86375 -0.06553 0.06948
101.60000 0.96075 -0.11527 -0.10750
101.70000 0.88084 0.11024 0.01785
101.80000 0.92769 0.04175 0.04002
101.90000 1.01841 -0.03405 -0.01488
102.00000 0.84109 0.02580 -0.02064
102.10000 0.98045 -0.03502 0.01063
102.20000 0.91919 -0.10617 0.00118
102.30000 0.96253 0.00380 0.00113
102.40000 0.94135 0.24558 -0.02400
102.50000 0.90811 0.33410 0.04131
102.60000 0.93712 0.29573 -0.01606
102.70000 0.87743 0.06945 -0.01521
102.80000 0.96336 -0.16160 -0.00683
102.90000 0.94638 -0.19153 -0.01465
103.00000 0.88562 -0.09931 0.00682
103.10000 0.94011 0.22444 0.00019
103.20000 0.98521 0.27302 0.00629
103.30000 0.86510 0.00237 0.05060
103.40000 0.93116 -0.00141 -0.04579
103.50000 0.90890 0.13323 0.00097
103.60000 0.91858 0.22771 -0.05167
103.70000 0.91992 0.15942 0.03062
103.80000 0.85676 -0.09231 0.04053
103.90000 0.99324 -0.18006 -0.02975
104.00000 0.87162 -0.10908 0.00074
104.10000 0.98583 0.03914 0.00993
104.20000 0.95014 0.06845 0.00859
104.30000 0.94564 0.01271 0.00169
104.40000 0.87943 0.00453 -0.02954
104.50000 0.96761 0.10137 -0.00256
104.60000 0.95374 0.07666 0.01352
104.70000 0.96376 0.09355 0.03607
104.80000 0.90594 -0.03619 -0.00798
104.90000 0.92063 -0.24913 -0.03849
105.00000 0.95454 -0.26353 0.07051
105.10000 0.87751 -0.16580 -0.02119
105.20000 0.90275 0.14228 -0.00480
105.30000 0.95143 0.22299 -0.04340
105.40000 0.95341 0.12676 0.02574
105.50000 0.90493 0.10953 -0.04008
105.60000 0.95863 0.09908 0.04879
105.70000 0.94208 0.05464 0.03321
105.80000 0.89058 0.10417 -0.04203
105.90000 0.92251 0.00450 0.01802
106.00000 0.86436 -0.15163 0.02958
106.10000 0.97973 -0.08306 -0.05577
106.20000 0.91037 -0.06414 0.02111
106.30000 0.92766 -0.13819 0.03622
106.40000 1.00031 -0.16688 -0.04611
106.50000 0.91353 -0.06719 -0.03101
106.60000 0.89390 -0.02473 0.12890
106.70000 0.94034 -0.13228 -0.04879
106.80000 0.84377 -0.18126 0.01711
106.90000 1.05481 -0.00673 0.06510
107.00000 0.84065 0.07640 -0.05124
107.10000 0.96182 0.05742 -0.03655
107.20000 0.94113 -0.00487 0.02493
107.30000 0.94891 -0.13703 -0.00688
107.40000 0.91363 -0.05049 0.01077
107.50000 0.92040 0.00144 -0.02546
107.60000 0.92276 0.03795 0.01635
107.70000 0.97385 0.09285 0.08424
107.80000 0.87400 -0.01276 -0.03439
107.90000 0.89405 0.05041 -0.01123
108.00000 0.96150 -0.17006 0.01398
108.10000 0.90261 -0.25303 -0.00059
108.20000 0.96930 -0.19509 -0.04478
108.30000 0.89420 -0.05842 -0.02697
108.40000 0.96803 -0.10107 0.06156
108.50000 0.91855 -0.02604 -0.01651
108.60000 0.92359 -0.16902 -0.00832
108.70000 0.95381 -0.32246 -0.00109
108.80000 0.87368 -0.16366 0.00256
108.90000 0.98057 0.02585 -0.02152
109.00000 0.89794 0.23334 -0.01302
109.10000 0.92847 0.25767 0.05760
109.20000 0.85995 -0.00234 -0.02255
109.30000 0.97355 -0.02908 0.01112
109.40000 0.88140 -0.03764 0.05531
109.50000 0.92015 0.00837 -0.00303
109.60000 0.90062 0.09076 -0.07012
109.70000 0.97936 0.14238 0.04447
109.80000 0.87627 0.10787 -0.02031
109.90000 0.96506 -0.09302 0.05030
110.00000 0.92307 -0.18027 -0.02761
110.10000 0.95082 0.03020 -0.00584
110.20000 0.88474 0.21064 0.04112
110.30000 0.97342 0.16915 -0.05720
110.40000 0.87886 0.11150 0.02704
110.50000 0.98435 -0.02673 0.01562
110.60000 0.91375 -0.17963 0.03390
110.70000 0.93652 -0.27299 -0.02007
110.80000 0.94401 -0.37143 -0.00899
110.90000 0.87463 -0.00555 -0.02205
111.00000 0.99838 0.30512 -0.02137
111.10000 0.88126 0.33890 0.03446
111.20000 0.94008 0.30273 -0.05572
111.30000 0.84187 0.19216 -0.00520
111.40000 1.00196 0.00517 -0.00152
111.50000 0.89230 0.06572 -0.00174
111.60000 0.91744 0.27142 -0.02614
111.70000 0.87437 0.15899 -0.00106
111.80000 0.90186 -0.07418 -0.00937
111.90000 0.99349 -0.10633 0.03646
112.00000 0.82792 -0.10987 0.02602
112.10000 0.96786 0.00848 0.01100
112.20000 0.92853 -0.11986 -0.03894
112.30000 0.91045 -0.21290 0.03186
112.40000 0.98583 -0.12241 -0.00990
112.50000 0.90594 0.06461 -0.00566
112.60000 0.89680 0.05191 0.02900
112.70000 1.00450 -0.05674 0.07531
112.80000 0.84242 0.02748 0.00408
112.90000 1.06105 0.07174 -0.11014
113.00000 0.91200 -0.04477 0.05381
113.10000 0.93659 -0.17393 -0.03834
113.20000 0.91188 -0.29239 -0.05147
113.30000 0.93601 -0.01948 -0.02756
113.40000 0.91796 0.05472 0.02332
113.50000 0.91975 0.15863 -0.01115
113.60000 0.95796 0.26481 0.00638
113.70000 0.89986 0.39834 0.04043
113.80000 0.97577 0.42429 -0.00804
113.90000 0.86275 0.03798 -0.03745
114.00000 0.98527 -0.19326 -0.07534
114.10000 0.85047 -0.07214 0.01090
114.20000 1.01494 -0.06711 0.05703
114.30000 0.81916 0.06010 -0.07888
114.40000 0.91357 0.19218 0.00693
114.50000 0.91511 -0.08462 -0.02060
114.60000 0.93136 -0.34164 -0.00039
114.70000 0.88067 -0.33148 0.00231
114.80000 0.98323 -0.02974 -0.00738
114.90000 0.90385 0.16344 0.03661
115.00000 0.92080 0.16267 -0.04252
115.10000 0.99558 0.15764 0.03282
115.20000 0.86954 0.17731 -0.01417
115.30000 0.89723 0.00239 -0.05029
115.40000 0.95590 -0.16369 -0.02894
115.50000 0.85503 -0.02301 0.05637
115.60000 0.90097 0.23961 -0.01676
115.70000 0.95901 0.23875 -0.00729
115.80000 0.88771 0.03153 -0.02288
115.90000 0.95840 -0.06232 -0.01951
116.00000 0.92920 0.04418 0.04996
116.10000 0.99347 -0.00277 0.00706
116.20000 0.88228 0.07113 -0.00308
116.30000 0.87183 0.08855 -0.01732
116.40000 1.01999 0.01931 -0.02985
116.50000 0.88036 -0.05489 0.00813
116.60000 0.97064 -0.13789 0.03812
116.70000 0.89296 -0.12599 -0.00281
116.80000 0.99027 0.00322 0.01321
116.90000 0.88691 0.01543 -0.04636
117.00000 0.90661 0.02272 0.01836
117.10000 0.96324 -0.12889 -0.00710
117.20000 0.92306 -0.23375 0.00084
117.30000 0.88344 -0.06836 -0.00683
117.40000 0.92409 -0.07352 0.02020
117.50000 0.93000 -0.11403 0.01640
117.60000 0.96805 -0.16148 -0.04391
117.70000 0.89804 -0.24397 -0.07057
117.80000 0.98354 -0.23465 0.06816
117.90000 0.85002 0.00446 -0.03662
118.00000 0.92806 -0.10461 0.00404
118.10000 0.93312 -0.19763 -0.00390
118.20000 0.85351 -0.28655 0.02285
118.30000 0.96554 -0.25135 0.02682
118.40000 0.83676 -0.14721 -0.01687
118.50000 0.99153 -0.02179 -0.00434
118.60000 0.91745 -0.07225 -0.00930
118.70000 0.95364 -0.17751 -0.00093
118.80000 0.86630 -0.25287 0.01888
118.90000 0.99182 -0.36599 -0.02110
119.00000 0.89420 -0.22446 -0.04919
119.10000 0.86237 0.05907 0.01906
119.20000 0.99704 0.02057 -0.00090
119.30000 0.89435 -0.17006 -0.02833
119.40000 0.88224 -0.24412 -0.06004
119.50000 0.92648 -0.00475 0.00485
119.60000 0.92441 0.05257 -0.01069
119.70000 0.92351 -0.01967 -0.01423
119.80000 0.94433 -0.01085 0.02314
119.90000 0.92174 0.18588 0.02990
120.00000 0.95467 0.05850 -0.00139
120.10000 0.88306 0.00165 0.01265
120.20000 0.93942 -0.05629 -0.00447
120.30000 0.95409 -0.29546 -0.07482
120.40000 0.87630 -0.37654 0.05219
120.50000 0.94179 -0.25555 0.02342
120.60000 0.89587 -0.04070 -0.02288
120.70000 0.98808 0.02434 -0.01337
120.80000 0.87702 0.02822 -0.02059
120.90000 0.98557 0.17544 0.00237
121.00000 0.88791 0.24033 0.00779
121.10000 0.96589 0.20426 0.05347
121.20000 0.91125 0.22078 0.00402
121.30000 0.91466 0.21012 -0.04342
121.40000 0.89147 0.34782 0.03202
121.50000 0.93451 0.28589 -0.00374
121.60000 0.95912 -0.01103 0.01003
121.70000 0.89383 -0.09439 0.00955
121.80000 0.97688 -0.00333 0.01331
121.90000 0.91973 -0.02134 -0.08002
122.00000 0.90775 -0.05654 0.00218
122.10000 0.79832 0.01264 0.02785
122.20000 1.01473 0.02070 -0.01387
122.30000 0.87859 0.14345 -0.00312
122.40000 0.95852 -0.03781 0.00748
122.50000 0.94225 0.09500 0.05516
122.60000 0.96233 0.33666 -0.05193
122.70000 0.90668 0.19898 -0.03942
122.80000 0.93203 0.09006 0.02436
122.90000 0.95630 0.06650 0.00684
123.00000 0.88682 -0.10325 -0.03064
123.10000 1.00920 -0.03083 -0.02938
123.20000 0.91506 0.00452 0.02009
123.30000 0.89978 -0.14609 -0.02004
123.40000 0.93175 -0.32860 -0.02823
123.50000 0.97414 -0.13178 0.03827
123.60000 0.89186 -0.01009 -0.03609
123.70000 0.91750 -0.05783 0.01709
123.80000 0.91726 -0.11904 0.02896
123.90000 0.97338 -0.01327 -0.02880
124.00000 0.81690 -0.09682 0.01192
124.10000 1.00114 -0.07557 0.04485
124.20000 0.89460 -0.09196 -0.02359
124.30000 0.91741 -0.20908 0.03374
124.40000 0.92345 -0.29915 -0.02611
124.50000 0.92244 -0.30006 -0.01474
124.60000 0.90318 -0.26225 -0.02389
124.70000 0.95431 -0.17407 0.00322
124.80000 0.88678 -0.09774 0.08522
124.90000 1.02280 -0.10761 -0.05412
125.00000 0.84100 0.20960 0.02771
125.10000 0.91937 0.17235 0.02572
125.20000 0.91391 0.13014 -0.04911
125.30000 0.96604 0.06614 0.03903
125.40000 0.97554 0.10390 0.06363
125.50000 0.88178 0.07731 -0.07012
125.60000 0.91659 0.00585 0.01227
125.70000 0.91162 0.05015 -0.03303
125.80000 0.90953 0.05892 0.03471
125.90000 0.90553 -0.04390 0.01372
126.00000 0.89490 -0.03161 0.01440
126.10000 0.98394 -0.19537 0.00461
126.20000 0.80093 -0.26827 0.03660
126.30000 0.96993 -0.07025 -0.03829
126.40000 0.86371 0.04572 0.01650
126.50000 0.94072 0.15162 -0.00866
126.60000 0.85378 0.21941 0.03952
126.70000 0.97804 0.11762 -0.05316
126.80000 0.92690 0.03313 -0.04172
126.90000 0.93051 -0.03298 0.01125
127.00000 0.94513 -0.13360 0.02453
127.10000 0.90689 -0.07700 -0.05696
127.20000 0.91724 0.14871 0.01321
127.30000 0.95662 0.16919 0.03384
127.40000 0.90466 0.10252 0.01229
127.50000 0.94531 -0.11225 -0.01133
127.60000 0.92302 -0.38192 0.02601
127.70000 0.89888 -0.35403 0.00588
127.80000 0.91298 -0.31314 -0.04264
127.90000 0.99823 -0.22668 -0.00621
128.00000 0.88517 -0.07064 0.00361
128.10000 0.99064 0.03802 0.06432
128.20000 0.91622 0.13656 -0.04323
128.30000 1.00138 0.00966 -0.03370
128.40000 0.82758 -0.11005 0.00000
128.50000 1.02170 -0.00145 0.01865
128.60000 0.81201 -0.00150 -0.04675
128.70000 0.98708 -0.04271 0.06900
128.80000 0.89558 0.06177 -0.02810
128.90000 0.91248 -0.12807 -0.06154
129.00000 0.91792 -0.24091 0.04689
129.10000 0.90963 -0.17334 0.03990
129.20000 0.98725 -0.10942 -0.00906
129.30000 0.87715 0.05781 -0.05224
129.40000 0.92541 0.15465 0.03887
129.50000 0.91769 0.12258 0.01718
129.60000 0.98223 0.12425 -0.03707
129.70000 0.87283 -0.01693 0.02884
129.80000 0.98475 -0.08424 0.02472
129.90000 0.92378 -0.22573 -0.04382
130.00000 0.92765 -0.26564 0.00457
130.10000 0.87758 -0.10883 -0.00454
130.20000 0.95598 0.09008 0.03387
130.30000 0.89706 0.00865 -0.03105
130.40000 0.96027 -0.00285 0.02386
130.50000 0.84400 -0.11256 0.01396
130.60000 0.97687 -0.00419 -0.02620
130.70000 0.90652 -0.03792 -0.03461
130.80000 0.96216 0.01850 0.03910
130.90000 0.91492 -0.10511 0.00493
131.00000 0.93446 0.02481 0.01840
131.10000 0.91552 0.17219 -0.00015
131.20000 0.93991 0.02552 0.04265
131.30000 0.91602 -0.23400 0.00798
131.40000 0.92018 -0.22704 -0.02357
131.50000 0.91220 -0.21332 0.04597
131.60000 0.95108 -0.13523 -0.00090
131.70000 0.87862 -0.16955 -0.04997
131.80000 0.98072 -0.11146 0.04763
131.90000 0.86877 -0.14743 0.02286
132.00000 0.93620 -0.06280 0.00809
132.10000 0.89747 -0.12596 -0.08048
132.20000 0.93394 -0.04403 0.00156
132.30000 0.98159 0.04145 0.00596
132.40000 0.83394 0.20777 -0.05325
132.50000 0.94883 0.08918 -0.03991
132.60000 0.87383 0.03912 0.02973
132.70000 0.94833 0.10375 0.01492
132.80000 0.87845 0.13945 -0.04264
132.90000 0.95412 0.09257 -0.00611
133.00000 0.91349 -0.09508 -0.01630
133.10000 0.93040 0.00711 -0.00260
133.20000 0.97744 0.05550 0.01183
133.30000 0.90445 -0.08026 0.03897
133.40000 1.00336 0.01610 -0.02660
133.50000 0.84280 0.14310 -0.03677
133.60000 0.95451 0.05229 0.02828
133.70000 0.89707 0.00057 0.01889
133.80000 0.87566 -0.01093 0.01507
133.90000 0.98117 -0.11144 0.01328
134.00000 0.86077 -0.16103 -0.03048
134.10000 1.03013 -0.05015 -0.03093
134.20000 0.91283 0.13220 -0.02416
134.30000 0.96900 0.11099 0.01354
134.40000 0.95595 0.08500 0.02351
134.50000 0.92394 0.06096 -0.05942
134.60000 0.93241 0.18940 0.01718
134.70000 0.89951 0.12294 -0.01219
134.80000 0.99131 0.20877 0.03032
134.90000 0.92242 0.15934 -0.04413
135.00000 0.89439 0.11215 0.02475
135.10000 0.90648 0.09575 0.01599
135.20000 0.91501 0.08030 0.04098
135.30000 0.91132 -0.05578 -0.00761
135.40000 0.91682 -0.15606 -0.01841
135.50000 0.90896 -0.23954 -0.01303
135.60000 0.90825 -0.27905 -0.04670
135.70000 0.93090 -0.06613 0.01798
135.80000 0.92816 -0.11761 0.06527
135.90000 0.96685 -0.17669 -0.00488
136.00000 0.92135 -0.14351 -0.01722
136.10000 0.88467 0.01377 -0.01655
136.20000 1.01076 0.04647 0.03433
136.30000 0.87679 0.07622 -0.01513
136.40000 0.93005 -0.05662 0.02436
136.50000 0.95544 -0.12046 0.02238
136.60000 0.94271 -0.11100 0.01329
136.70000 0.94246 -0.06499 -0.02719
136.80000 0.91839 0.00554 -0.01249
136.90000 0.91880 -0.12285 -0.00544
137.00000 0.95183 -0.05820 -0.01438
137.10000 0.94516 0.03248 0.01140
137.20000 0.88661 0.06119 0.04349
137.30000 0.95199 0.04812 -0.04088
137.40000 0.97117 -0.02273 -0.03281
137.50000 0.90331 0.14065 0.05721
137.60000 0.90015 0.27237 0.04848
137.70000 0.99899 0.16661 -0.01023
137.80000 0.90374 0.14510 -0.03661
137.90000 0.98026 0.19561 -0.00070
138.00000 0.92972 0.23127 -0.02148
138.10000 0.88861 0.24213 0.02166
138.20000 0.93955 0.33007 -0.00927
138.30000 0.93589 0.38860 0.03113
138.40000 0.97176 0.30556 -0.02661
138.50000 0.95093 -0.06386 -0.03512
138.60000 0.82272 -0.30639 0.02706
138.70000 1.00787 -0.37909 0.02702
138.80000 0.87988 -0.30832 -0.01791
138.90000 0.94221 -0.06795 -0.01780
139.00000 0.93794 0.21107 0.06154
139.10000 0.90927 0.29540 -0.03328
139.20000 0.95597 0.32423 -0.05544
139.30000 0.85498 0.35593 0.09134
139.40000 1.01585 0.03634 0.01415
139.50000 0.83454 -0.01541 -0.02542
139.60000 0.94369 0.09723 0.03070
139.70000 0.94418 0.06156 0.00785
139.80000 0.87551 0.05116 -0.05042
139.90000 0.90792 0.00596 0.04194
140.00000 0.92323 -0.04568 0.01263
140.10000 0.93268 0.04091 -0.01931
140.20000 0.89545 0.10156 -0.07266
140.30000 0.91671 0.00875 0.06154
140.40000 0.98780 0.12865 0.02575
140.50000 0.94171 0.13340 -0.03641
140.60000 0.92353 -0.09573 0.02276
140.70000 0.92840 -0.04335 0.02985
140.80000 0.91367 0.12002 0.03799
140.90000 0.96004 0.01525 -0.03531
141.00000 0.91245 -0.10641 0.02870
141.10000 0.88864 -0.25043 0.03580
141.20000 0.93285 -0.34361 -0.00971
141.30000 0.92046 -0.28049 -0.05710
141.40000 0.99484 -0.09851 0.04593
141.50000 0.91545 -0.08877 -0.00438
141.60000 0.90250 0.00882 0.00905
141.70000 0.95583 0.21367 0.02710
141.80000 0.93736 0.13187 -0.04259
141.90000 0.86981 -0.05851 -0.03057
142.00000 0.92521 -0.34407 -0.00754
142.10000 0.88896 -0.26458 -0.00113
142.20000 0.96097 0.00455 -0.04568
142.30000 0.89269 0.06876 -0.02722
142.40000 0.93356 0.14973 0.00660
142.50000 0.91398 0.06245 0.04498
142.60000 0.94788 -0.03324 -0.06523
142.70000 0.93577 -0.00313 0.01307
142.80000 0.97302 0.27629 -0.09096
142.90000 0.88458 0.14673 0.02753
143.00000 0.97199 0.05037 0.05967
143.10000 0.85174 0.12000 -0.00496
143.20000 0.95903 0.08517 -0.05090
143.30000 0.91618 0.02084 0.02058
143.40000 0.94804 0.07103 -0.01827
143.50000 0.93385 0.28734 -0.00719
143.60000 0.91456 0.22234 0.08212
143.70000 0.93473 0.17797 -0.02605
143.80000 0.93717 0.10270 -0.06560
143.90000 0.92814 0.10190 0.11965
144.00000 0.97880 0.15042 -0.03403
144.10000 0.86457 0.22663 -0.00513
144.20000 0.87406 0.10599 0.03963
144.30000 1.03313 -0.18530 0.00426
144.40000 0.78763 -0.12547 -0.00700
144.50000 0.97746 -0.00652 0.03875
144.60000 0.88684 -0.04887 -0.02408
144.70000 0.94407 -0.19487 -0.04188
144.80000 0.88891 -0.11467 0.01692
144.90000 0.96475 0.08339 -0.03133
145.00000 0.91318 0.20236 0.00014
145.10000 0.93500 0.04345 0.01209
145.20000 0.94856 -0.17951 0.05590
145.30000 0.91280 -0.09026 -0.01058
145.40000 0.97880 0.02386 -0.04407
145.50000 0.83955 0.08318 0.05659
145.60000 0.95375 0.18413 -0.06689
145.70000 0.94943 0.20809 0.05515
145.80000 0.86535 0.33058 0.03263
145.90000 0.97166 0.46493 -0.05871
146.00000 0.92532 0.25580 -0.03480
146.10000 0.94702 0.07630 0.04509
146.20000 0.93539 0.00902 -0.01372
146.30000 0.78752 -0.02084 -0.06882
146.40000 1.02233 0.05920 0.02696
146.50000 0.85732 -0.00772 0.04749
146.60000 0.98816 -0.02423 -0.04791
146.70000 0.90968 0.12820 -0.00647
146.80000 0.96780 0.22870 0.04232
146.90000 0.91769 0.27733 -0.00726
147.00000 0.94135 0.20094 0.02305
147.10000 0.93149 -0.08098 0.03466
147.20000 0.91842 -0.23022 0.01660
147.30000 0.95759 -0.11582 -0.06294
147.40000 0.96217 -0.17502 0.01637
147.50000 0.80297 -0.22897 -0.00741
147.60000 1.01831 -0.04563 -0.03540
147.70000 0.86960 -0.13069 0.02680
147.80000 1.01835 -0.20358 0.00908
147.90000 0.87131 -0.08418 -0.01570
148.00000 0.97565 0.07841 -0.06654
148.10000 0.94014 0.11168 0.01115
148.20000 0.85372 0.01025 -0.00379
148.30000 0.99353 -0.16103 0.03988
148.40000 0.89155 -0.15358 0.06017
148.50000 0.93686 0.04085 -0.03504
148.60000 0.88556 0.16421 -0.05971
148.70000 0.98648 0.26371 0.02063
148.80000 0.85732 0.21435 -0.01219
148.90000 0.95664 0.12490 -0.03337
149.00000 0.87571 0.00513 -0.03021
149.10000 0.95284 -0.08353 -0.01543
149.20000 0.89811 -0.07332 0.02669
149.30000 0.92838 -0.04162 0.06379
149.40000 0.94586 0.03065 -0.00071
149.50000 0.93934 0.10784 -0.07197
149.60000 0.89654 -0.01289 -0.01348
149.70000 0.91609 -0.22435 0.05468
149.80000 0.97036 -0.16706 -0.00393
149.90000 0.90564 -0.14272 -0.00768
150.00000 0.95085 -0.09160 0.05117
150.10000 0.95331 0.01593 0.02569
150.20000 0.93016 0.02416 -0.02996
150.30000 0.92248 -0.07330 0.03130
150.40000 0.95462 -0.19318 0.02203
150.50000 0.86579 -0.28090 -0.03503
150.60000 0.93330 -0.17240 0.01335
150.70000 0.91138 -0.00325 -0.02553
150.80000 0.94610 0.19294 0.03954
150.90000 0.83900 0.21497 -0.03099
151.00000 0.95764 0.02315 -0.05871
151.10000 0.84176 -0.10572 -0.04484
151.20000 0.96900 -0.06334 0.04564
151.30000 0.91214 0.07491 0.03715
151.40000 0.93972 -0.02562 -0.04483
151.50000 0.97143 -0.15583 -0.06738
151.60000 0.91313 -0.10510 0.08740
151.70000 0.97278 0.10301 -0.00979
151.80000 0.93102 0.10406 -0.05187
151.90000 0.83787 0.04580 -0.04409
152.00000 0.98610 0.20760 0.02670
152.10000 0.90474 0.26793 0.00178
152.20000 0.91936 0.24113 0.04957
152.30000 0.91625 -0.12975 -0.03992
152.40000 0.98310 -0.19292 0.01151
152.50000 0.85493 -0.10377 0.04476
152.60000 1.00120 -0.01353 0.03001
152.70000 0.91414 0.01804 -0.03884
152.80000 0.95547 0.09539 -0.01663
152.90000 0.93026 0.06038 -0.04136
153.00000 0.82003 -0.03277 0.00233
153.10000 1.01127 0.03278 -0.00274
153.20000 0.97116 -0.05060 -0.02509
153.30000 0.88888 -0.03892 0.00858
153.40000 0.97964 -0.06042 -0.08088
153.50000 0.94415 -0.02139 0.01393
153.60000 0.88763 0.04229 0.02344
153.70000 0.94269 0.20799 0.00465
153.80000 0.88396 0.19917 -0.05909
153.90000 0.94697 0.14055 -0.01351
154.00000 0.92835 -0.02384 0.01722
154.10000 0.97336 -0.15510 0.03935
154.20000 0.89272 -0.18693 -0.03559
154.30000 0.94107 -0.21748 0.05510
154.40000 0.89493 -0.19477 -0.06958
154.50000 0.90501 -0.27905 -0.02513
154.60000 1.00083 -0.26772 0.04001
154.70000 0.83131 0.03617 0.00147
154.80000 0.95778 0.21436 -0.03895
154.90000 0.91047 0.10220 0.04781
155.00000 0.89631 -0.08901 0.02737
155.10000 0.89378 -0.09400 -0.07946
155.20000 1.00245 0.03006 -0.00110
155.30000 0.88744 0.06381 0.01707
155.40000 1.04441 -0.01907 0.02743
155.50000 0.90245 0.01118 -0.06427
155.60000 0.90520 0.18559 -0.00403
155.70000 0.90358 0.35440 0.03533
155.80000 0.93391 0.17549 0.04608
155.90000 0.98470 0.04349 -0.05219
156.00000 0.95343 -0.17575 -0.01100
156.10000 0.95330 0.03678 0.05676
156.20000 0.92571 -0.00050 -0.02887
156.30000 0.93918 -0.22870 0.00625
156.40000 0.91657 -0.29950 0.04969
156.50000 0.95084 -0.20982 0.02805
156.60000 0.95109 -0.13645 0.01267
156.70000 0.89811 -0.01452 0.01052
156.80000 0.93934 -0.01958 0.03395
156.90000 0.89863 -0.00724 -0.00711
157.00000 0.96620 -0.14358 -0.00614
157.10000 0.91366 -0.04500 0.05626
157.20000 0.90666 0.22761 -0.03280
157.30000 0.92132 0.49630 -0.03863
157.40000 0.99106 0.35251 0.04860
157.50000 0.92984 -0.09498 0.05458
157.60000 0.88993 -0.35909 -0.02457
157.70000 0.92264 -0.21459 -0.02804
157.80000 0.89713 -0.17625 0.02032
157.90000 0.98045 -0.16301 0.00393
158.00000 0.86953 -0.03924 -0.01664
158.10000 0.91282 -0.08000 0.01046
158.20000 0.90097 0.03275 -0.01992
158.30000 0.89923 0.26659 0.02906
158.40000 0.93794 0.46258 -0.02015
158.50000 0.91415 0.31333 -0.02835
158.60000 0.91201 0.07935 0.04212
158.70000 0.91275 0.00085 0.05949
158.80000 0.90908 -0.08134 -0.03008
158.90000 0.89709 -0.10740 -0.04897
159.00000 0.97846 -0.01023 0.03393
159.10000 0.90885 -0.23816 0.02813
159.20000 0.92876 -0.05600 -0.06764
159.30000 0.94197 0.04836 -0.01002
159.40000 0.80667 0.07851 0.01263
159.50000 0.97142 0.08163 -0.01864
159.60000 0.92453 0.02928 0.07008
159.70000 0.93003 -0.11903 -0.05047
159.80000 0.92730 -0.16605 -0.07046
159.90000 0.95232 -0.17863 0.00531
160.00000 0.90720 -0.05417 -0.01404
160.10000 0.95444 0.10848 0.00814
160.20000 0.90529 0.14200 0.04932
160.30000 0.95856 -0.02334 0.04161
160.40000 0.92783 -0.16124 -0.02903
160.50000 0.94368 -0.07795 -0.00955
160.60000 0.96296 0.03243 -0.02396
160.70000 0.89497 -0.13173 -0.03115
160.80000 0.92690 -0.18044 -0.03187
160.90000 0.89307 -0.09069 0.05526
161.00000 0.97331 0.00136 -0.00113
161.10000 0.87700 0.03537 0.00561
161.20000 0.99121 0.18566 0.00112
161.30000 0.84500 0.15702 0.01328
161.40000 0.94385 -0.11587 0.02496
161.50000 0.92271 -0.32096 -0.03049
161.60000 0.91208 -0.31646 0.02793
161.70000 0.99704 -0.07012 -0.03013
161.80000 0.87187 -0.00269 0.00729
161.90000 0.97614 0.19954 -0.07069
162.00000 0.91947 0.16036 -0.01578
162.10000 0.95470 0.01080 -0.00980
162.20000 0.91093 0.13247 0.01916
162.30000 0.95414 0.29878 0.01282
162.40000 0.94623 0.34484 0.00874
162.50000 0.89758 0.20529 0.00536
162.60000 0.92675 -0.13445 -0.05650
162.70000 0.93420 -0.19652 0.01851
162.80000 0.84996 0.03527 -0.01341
162.90000 0.97064 -0.03374 -0.00273
163.00000 0.86831 0.05289 0.02109
163.10000 0.94018 0.06854 0.01980
163.20000 0.90349 0.09003 -0.04680
163.30000 0.93715 0.13755 0.00390
163.40000 0.89718 0.17273 0.00555
163.50000 0.90419 0.03184 -0.03304
163.60000 0.92005 -0.05038 0.04452
163.70000 0.98485 0.04264 -0.01174
163.80000 0.89270 0.16683 -0.00292
163.90000 0.97110 0.07468 0.04835
164.00000 0.88376 -0.07825 -0.04649
164.10000 0.93707 -0.07878 -0.00779
164.20000 0.95138 0.01393 0.02378
164.30000 0.92305 0.08052 -0.03530
164.40000 1.02540 0.09361 0.02106
164.50000 0.88808 0.25540 0.01069
164.60000 0.97366 0.31256 -0.00602
164.70000 0.89613 0.17755 0.02760
164.80000 0.92283 -0.06765 -0.06882
164.90000 0.94186 -0.02214 0.02210
165.00000 0.95268 0.14539 0.03970
165.10000 0.94531 0.12978 -0.05782
165.20000 0.94390 -0.08795 -0.00476
165.30000 0.89573 -0.07187 0.08617
165.40000 0.96409 -0.05048 0.01527
165.50000 0.88341 0.04685 -0.03449
165.60000 0.92678 -0.06892 -0.03244
165.70000 0.94414 0.01236 0.05050
165.80000 0.95373 0.09156 -0.03764
165.90000 0.90164 -0.01730 -0.02406
166.00000 0.94341 0.12514 0.03151
166.10000 0.91904 0.22515 0.03914
166.20000 0.89883 0.20054 0.07004
166.30000 0.90411 -0.00699 -0.02662
166.40000 0.93782 -0.27289 0.00004
166.50000 0.91736 -0.32376 -0.00601
166.60000 0.94655 0.04292 0.06638
166.70000 0.87633 0.28393 0.02105
166.80000 0.97943 0.21406 0.00018
166.90000 0.88534 0.09443 0.00452
167.00000 0.92511 -0.08963 -0.05483
167.10000 0.92959 -0.20106 -0.05197
167.20000 0.93270 -0.19801 0.04179
167.30000 0.94238 -0.21532 -0.05492
167.40000 0.89277 -0.06368 0.01988
167.50000 0.91978 0.02152 -0.02617
167.60000 0.91914 0.17064 -0.01247
167.70000 0.91375 0.04943 -0.02580
167.80000 0.89122 -0.20581 0.02639
167.90000 0.93972 -0.40683 -0.02692
168.00000 0.87371 -0.25817 -0.04719
168.10000 0.92423 -0.09106 -0.01669
168.20000 0.87063 -0.12870 -0.00759
168.30000 0.97378 -0.16350 0.04283
168.40000 0.94892 -0.01277 -0.04842
168.50000 0.91993 0.23342 -0.03103
168.60000 0.93400 0.15568 -0.00349
168.70000 0.98569 -0.04264 0.03808
168.80000 0.86698 -0.32075 -0.00734
168.90000 0.95071 -0.27346 -0.05191
169.00000 0.94620 -0.02252 0.04972
169.10000 0.89745 0.02445 -0.03719
169.20000 1.02541 -0.28141 -0.07010
169.30000 0.87539 -0.22280 -0.04824
169.40000 0.93738 -0.15694 0.05125
169.50000 0.88345 0.01536 -0.02801
169.60000 0.94394 0.21634 0.01699
169.70000 0.94676 0.17587 -0.01335
169.80000 0.91396 -0.08277 0.02563
169.90000 0.93699 -0.33145 -0.06431
170.00000 1.00292 -0.18090 -0.01811
170.10000 0.80487 -0.09823 0.08123
170.20000 0.98568 0.07660 0.01464
170.30000 0.89088 0.01403 0.00243
170.40000 0.90886 -0.09719 -0.03930
170.50000 0.89960 -0.13056 0.03432
170.60000 0.86927 -0.19299 0.00669
170.70000 0.98232 -0.22760 0.05691
170.80000 0.84210 -0.11517 -0.04828
170.90000 1.00629 0.06530 -0.01002
171.00000 0.88070 0.06466 0.06342
171.10000 1.02005 0.13701 0.01977
171.20000 0.86285 0.17859 -0.01361
171.30000 0.91001 0.32917 0.01021
171.40000 0.98368 0.17704 0.01163
171.50000 0.91948 -0.06012 0.05149
171.60000 0.85078 -0.19888 -0.07737
171.70000 1.00612 -0.07070 0.01378
171.80000 0.89986 -0.08983 0.00183
171.90000 0.89803 -0.02504 0.01772
172.00000 0.90164 0.01639 0.01724
172.10000 1.01436 0.15929 0.00175
172.20000 0.80485 0.07274 0.04339
172.30000 1.06573 -0.05302 0.03163
172.40000 0.82599 -0.08949 -0.02132
172.50000 1.01506 0.09967 -0.00538
172.60000 0.93400 0.04526 0.07084
172.70000 0.86750 0.12664 -0.01205
172.80000 0.93342 0.05171 -0.02824
172.90000 0.88185 0.08509 -0.00954
173.00000 0.90784 0.09109 0.05831
173.10000 0.93380 0.03232 -0.03136
173.20000 0.85588 0.06612 0.00939
173.30000 1.01024 0.09416 -0.00073
173.40000 0.81327 0.21448 -0.03652
173.50000 0.94297 0.16247 0.05662
173.60000 0.96581 -0.17614 -0.06887
173.70000 0.84391 -0.23027 0.01128
173.80000 0.94178 -0.11946 0.01592
173.90000 0.95568 0.05924 -0.03265
174.00000 0.94995 -0.05078 -0.08033
174.10000 0.94029 -0.11420 0.09038
174.20000 0.92860 -0.10427 -0.04271
174.30000 1.00844 -0.13139 -0.03893
174.40000 0.87461 -0.19037 0.02119
174.50000 0.92865 -0.09868 -0.01722
174.60000 0.93168 -0.09589 0.00837
174.70000 0.90913 0.02761 0.00662
174.80000 0.94135 0.15989 -0.00533
174.90000 0.94323 0.10369 -0.03387
175.00000 0.92209 0.01605 0.04064
175.10000 0.87796 -0.07640 0.05392
175.20000 0.93681 -0.11566 -0.04788
175.30000 0.87473 -0.11592 -0.02388
175.40000 0.87299 -0.16706 0.04094
175.50000 0.95203 -0.13488 -0.06396
175.60000 0.89360 0.09294 -0.05097
175.70000 0.93182 0.27511 0.03517
175.80000 0.89707 0.15878 -0.02102
175.90000 0.95384 -0.06557 -0.01441
176.00000 0.87654 -0.05801 0.03137
176.10000 0.95457 -0.21817 0.04568
176.20000 0.86788 -0.40177 0.00786
176.30000 0.96751 -0.26337 -0.02677
176.40000 0.89657 -0.05243 0.00493
176.50000 0.95751 0.01525 -0.05038
176.60000 0.89735 0.05994 -0.01634
176.70000 0.94555 0.10290 0.03286
176.80000 0.90538 0.01205 0.00880
176.90000 0.88592 0.11728 0.02331
177.00000 0.91393 0.31175 -0.02033
177.10000 0.84835 -0.07652 -0.00696
177.20000 0.91990 -0.08144 0.04007
177.30000 0.95360 -0.15562 0.00674
177.40000 0.93030 -0.04588 -0.04636
177.50000 0.92111 0.04087 -0.03472
177.60000 0.99409 0.03655 0.03322
177.70000 0.89596 0.12728 0.05027
177.80000 0.93694 -0.04223 -0.00829
177.90000 0.93535 -0.22057 0.04560
178.00000 0.89013 -0.13050 -0.04192
178.10000 0.92933 -0.10730 0.00141
178.20000 0.92079 -0.21459 0.03468
178.30000 0.95023 -0.21680 0.01746
178.40000 0.96002 -0.33152 0.01497
178.50000 0.90450 -0.22974 -0.00027
178.60000 0.92579 -0.12643 0.05116
178.70000 0.89174 -0.05945 0.00321
178.80000 0.94411 0.09696 -0.07756
178.90000 0.95200 0.06216 -0.00239
179.00000 0.94284 -0.04566 -0.02023
179.10000 0.88554 -0.04463 0.02345
179.20000 0.95995 -0.11296 0.01920
179.30000 0.91037 -0.00917 0.00725
179.40000 0.90766 -0.13202 -0.02550
179.50000 1.00585 -0.18486 -0.01139
179.60000 0.84253 -0.34895 -0.00180
179.70000 0.95306 -0.31054 0.02823
179.80000 0.93757 -0.16833 0.06165
179.90000 0.90709 -0.08565 -0.01642
180.00000 0.89639 -0.05815 0.01576
180.10000 0.92178 -0.00157 -0.02862
180.20000 0.94768 0.07777 0.00627
180.30000 0.88874 0.28698 0.04127
180.40000 0.85151 0.16171 -0.00377
180.50000 0.95299 -0.00242 0.00364
180.60000 0.98805 -0.09847 0.00765
180.70000 0.88334 -0.03151 0.01633
180.80000 0.94725 0.10360 0.02124
180.90000 0.91506 0.10735 -0.03474
181.00000 0.98431 -0.13108 -0.03493
181.10000 0.84082 -0.14608 0.05168
181.20000 1.03063 -0.17010 0.04981
181.30000 0.87532 -0.05190 -0.03549
181.40000 0.91519 -0.09614 -0.06012
181.50000 0.91042 -0.06287 0.10113
181.60000 0.91353 -0.24887 -0.05510
181.70000 0.87318 -0.33497 0.01270
181.80000 0.94291 -0.25291 0.01111
181.90000 0.89307 -0.09456 0.02219
182.00000 0.97189 -0.02344 0.00854
182.10000 0.92670 -0.04659 -0.01621
182.20000 0.98782 -0.08979 0.01888
182.30000 0.88555 0.01527 0.00190
182.40000 0.91369 -0.17778 0.01101
182.50000 0.90264 -0.29628 0.02271
182.60000 1.02780 -0.22476 -0.05373
182.70000 0.87705 -0.21657 -0.00138
182.80000 0.90934 -0.18921 0.00176
182.90000 0.87569 -0.01718 0.01368
183.00000 1.02464 -0.15767 -0.00909
183.10000 0.88660 -0.25293 -0.01838
183.20000 0.93819 -0.07623 0.01599
183.30000 0.97119 0.05267 -0.03883
183.40000 0.96761 0.04446 0.00316
183.50000 0.89872 0.07901 -0.02747
183.60000 1.00947 0.13622 -0.05035
183.70000 0.83777 0.02627 0.01086
183.80000 0.95082 -0.15879 0.03398
183.90000 0.95360 -0.15241 0.01173
184.00000 0.86568 0.08801 0.00326
184.10000 0.97566 0.18242 -0.05580
184.20000 0.86591 0.12904 0.04523
184.30000 0.95166 0.07102 0.09877
184.40000 0.88999 0.07375 0.01736
184.50000 0.97174 -0.04297 -0.04688
184.60000 0.89882 0.07318 0.01962
184.70000 0.91632 0.01465 -0.00169
184.80000 0.97559 -0.11130 -0.04275
184.90000 0.86246 0.00192 -0.01971
185.00000 0.90666 -0.04659 0.02337
185.10000 0.91030 0.00900 0.02318
185.20000 0.91811 0.05878 -0.04602
185.30000 0.92012 -0.16419 0.01261
185.40000 0.93013 -0.18473 0.00968
185.50000 0.98044 -0.05643 -0.01761
185.60000 0.85320 0.06906 0.00208
185.70000 0.95274 0.07763 0.05416
185.80000 0.92944 0.04678 -0.01805
185.90000 0.91363 0.14710 0.00050
186.00000 0.93327 0.05645 -0.05384
186.10000 1.00038 0.07929 0.00867
186.20000 0.84423 0.08399 0.03039
186.30000 0.97704 -0.13320 -0.01274
186.40000 0.94601 -0.14657 0.04887
186.50000 0.96014 -0.10396 0.02420
186.60000 0.87047 0.12085 -0.04188
186.70000 0.88895 0.00265 -0.02108
186.80000 0.91149 -0.34963 0.02667
186.90000 0.93515 -0.21308 0.01608
187.00000 0.91388 -0.11326 0.03139
187.10000 0.91941 0.04095 -0.06597
187.20000 0.99798 0.09570 0.04283
187.30000 0.83844 0.07139 -0.00376
187.40000 1.01304 -0.09678 0.00220
187.50000 0.88763 -0.22517 -0.00220
187.60000 0.88773 -0.19941 -0.00471
187.70000 1.03552 -0.07983 -0.00260
187.80000 0.87461 0.00785 -0.01744
187.90000 0.93432 0.11310 -0.02849
188.00000 0.91957 0.04971 0.01875
188.10000 0.89494 -0.05507 0.04327
188.20000 1.03108 -0.07119 -0.03421
188.30000 0.86805 0.11363 -0.02251
188.40000 0.92700 0.08402 0.00892
188.50000 0.90760 -0.05739 0.02630
188.60000 0.95560 0.02137 -0.00923
188.70000 0.92255 0.13865 0.01641
188.80000 0.95510 0.01007 -0.03575
188.90000 0.89419 -0.10555 0.02647
189.00000 0.91945 0.01490 0.02231
189.10000 0.85756 -0.05509 -0.00145
189.20000 0.96096 -0.16491 -0.00295
189.30000 0.95676 -0.18560 0.03194
189.40000 0.91511 -0.00501 -0.05589
189.50000 0.89097 0.08484 0.01751
189.60000 0.91305 0.22806 -0.10973
189.70000 0.94022 0.38354 0.03896
189.80000 0.89758 0.28914 0.04542
189.90000 0.92904 0.01414 -0.03928
190.00000 0.90315 -0.22458 -0.00808
190.10000 0.92041 -0.14370 0.05132
190.20000 0.93081 0.00839 -0.07397
190.30000 0.96678 0.04038 -0.04735
190.40000 0.88234 0.12503 0.05061
190.50000 0.91821 0.02376 -0.03315
190.60000 0.95115 0.10673 -0.01067
190.70000 0.89367 0.18951 -0.08451
190.80000 1.02533 -0.03679 0.07904
190.90000 0.86814 -0.30667 0.03250
191.00000 0.89650 -0.30274 -0.06914
191.10000 0.90646 -0.19425 -0.00019
191.20000 0.94188 -0.23014 0.05048
191.30000 0.90573 -0.11939 -0.00555
191.40000 0.88734 0.05412 -0.01167
191.50000 0.96659 0.16367 0.04029
191.60000 0.94685 -0.04593 0.01996
191.70000 0.95077 -0.17336 -0.01795
191.80000 0.85776 -0.04882 0.02324
191.90000 0.93017 0.01457 -0.06602
192.00000 0.92990 0.01006 0.07048
192.10000 0.91947 -0.13361 -0.01699
192.20000 0.87343 -0.22515 0.00179
192.30000 0.97857 -0.11241 -0.05545
192.40000 0.88048 -0.17843 -0.01893
192.50000 0.94518 0.00960 0.05985
192.60000 0.96936 0.00775 0.02300
192.70000 0.91919 -0.12531 -0.08629
192.80000 0.96377 -0.14081 -0.00233
192.90000 0.86403 0.06167 0.07596
193.00000 0.99182 0.19154 0.01603
193.10000 0.94199 0.24791 -0.04460
193.20000 0.89375 -0.03487 0.05553
193.30000 0.93102 -0.38197 -0.00618
193.40000 0.97459 -0.24587 0.00001
193.50000 0.90945 -0.02854 -0.01329
193.60000 0.91042 0.15500 -0.02530
193.70000 0.95691 0.25845 0.06787
193.80000 0.96424 0.08244 -0.00515
193.90000 0.83993 -0.17057 -0.06739
194.00000 0.94807 -0.10347 0.02662
194.10000 0.88687 -0.18262 -0.00030
194.20000 0.88502 -0.24808 0.01127
194.30000 0.94045 -0.23359 0.04553
194.40000 0.94241 -0.03937 0.02916
194.50000 0.90497 -0.07870 -0.01424
194.60000 0.96354 -0.08181 0.00537
194.70000 0.94894 -0.06478 -0.01339
194.80000 0.89549 0.03155 -0.01223
194.90000 0.91939 -0.03112 -0.02121
195.00000 0.98732 -0.15178 -0.00507
195.10000 0.89222 -0.18320 -0.05186
195.20000 0.91922 -0.08127 0.07901
195.30000 0.96951 0.10726 0.02445
195.40000 0.88125 0.23676 -0.01339
195.50000 0.95120 0.13870 -0.00141
195.60000 0.90848 0.03446 -0.07281
195.70000 0.92507 -0.17573 -0.04828
195.80000 0.97131 -0.19607 0.01123
195.90000 0.85079 0.02859 0.02670
196.00000 0.91108 0.20303 -0.05674
196.10000 0.90019 0.18548 0.02095
196.20000 0.92739 -0.03084 0.02420
196.30000 0.91739 -0.17753 0.06598
196.40000 0.87897 -0.21949 -0.09066
196.50000 0.89300 0.03683 -0.03485
196.60000 0.94315 0.17800 0.04006
196.70000 0.88706 0.11701 0.00537
196.80000 0.95474 0.11052 0.02452
196.90000 0.87641 0.09399 0.04221
197.00000 0.97662 0.06779 0.02200
197.10000 0.90577 0.07035 -0.01391
197.20000 0.90921 0.07160 0.04623
197.30000 0.90840 0.05194 -0.03481
197.40000 0.98572 0.00017 0.00624
197.50000 0.92802 0.01935 0.04441
197.60000 0.92486 -0.01127 0.05177
197.70000 0.91707 -0.15892 -0.06439
197.80000 0.93486 -0.26063 0.03722
197.90000 0.96086 -0.17187 -0.02690
198.00000 0.85833 -0.13577 -0.03582
198.10000 0.98753 0.13603 0.01975
198.20000 0.85654 0.19174 -0.00257
198.30000 0.95308 0.09607 -0.00359
198.40000 0.90846 -0.06746 0.00581
198.50000 0.91435 -0.13830 0.01349
198.60000 0.90225 -0.01451 -0.04291
198.70000 0.97909 0.17786 0.02987
198.80000 0.92162 0.09297 -0.02017
198.90000 0.91295 0.07956 -0.03083
199.00000 0.96666 0.18073 0.04528
199.10000 0.89274 0.21075 -0.02910
199.20000 0.93593 0.02240 -0.04223
199.30000 0.92585 -0.16830 0.02417
199.40000 0.91960 -0.09516 0.02197
199.50000 0.89501 0.20077 -0.01763
199.60000 0.93943 0.26595 -0.02347
199.70000 0.94282 0.21475 0.04485
199.80000 0.90296 0.08518 -0.02305
199.90000 0.89925 -0.05625 0.00722
200.00000 0.96000 -0.02235 -0.05662
200.10000 0.88359 0.02574 0.04460
200.20000 1.01259 0.02709 0.04207
200.30000 0.88877 0.03354 -0.02403
200.40000 0.95330 0.12873 0.02330
200.50000 0.92998 0.04361 -0.01508
200.60000 0.89263 -0.21519 0.02116
200.70000 0.96371 -0.31776 0.01778
200.80000 0.86892 -0.14217 -0.00939
200.90000 0.95182 0.13269 0.02289
201.00000 0.83198 0.15845 0.03230
201.10000 0.99155 0.04359 -0.01610
201.20000 0.89144 0.01227 0.01613
201.30000 0.92783 -0.03952 0.00184
201.40000 0.95428 -0.05304 -0.05783
201.50000 0.85809 -0.03928 0.11000
201.60000 0.91399 -0.00907 0.05032
201.70000 0.99039 0.03648 -0.09201
201.80000 0.82552 -0.04814 0.04135
201.90000 1.02850 -0.06017 0.00372
202.00000 0.86064 0.14122 -0.05362
202.10000 0.96357 0.06715 -0.04020
202.20000 0.88736 0.07060 0.00459
202.30000 0.91206 0.06880 -0.03995
202.40000 0.93536 0.13098 0.03580
202.50000 0.94421 0.18909 -0.00225
202.60000 0.91638 0.13731 -0.06246
202.70000 0.93318 0.14018 -0.01463
202.80000 0.95898 0.13775 0.06110
202.90000 0.89288 0.23998 -0.05298
203.00000 0.97611 0.22550 -0.03873
203.10000 0.85680 0.15876 0.03993
203.20000 0.94826 0.32932 0.05013
203.30000 0.93745 0.21625 -0.01251
203.40000 0.85303 -0.01760 -0.04922
203.50000 0.97035 -0.04840 -0.00810
203.60000 0.90728 0.02841 0.02972
203.70000 0.98219 0.16648 0.02848
203.80000 0.84096 0.18879 -0.01490
203.90000 1.04461 -0.05257 -0.01700
204.00000 0.85231 -0.18189 0.01487
204.10000 0.90658 -0.00432 -0.03712
204.20000 0.94933 0.29756 -0.02023
204.30000 0.92583 0.21063 0.00641
204.40000 0.89970 -0.09964 -0.00038
204.50000 0.97589 0.01962 -0.00526
204.60000 0.92527 -0.02381 -0.00431
204.70000 0.85829 -0.14994 0.01482
204.80000 1.00890 0.03608 -0.05113
204.90000 0.87417 0.25845 -0.07734
205.00000 0.95434 0.17434 -0.03868
205.10000 0.89283 -0.06907 -0.03173
205.20000 0.97538 -0.30461 0.03727
205.30000 0.81368 -0.33498 0.02196
205.40000 0.96227 0.04504 -0.05011
205.50000 0.89754 0.24088 -0.00379
205.60000 0.94053 0.28792 -0.03388
205.70000 0.88782 0.20851 0.02763
205.80000 0.99842 0.21117 -0.00640
205.90000 0.92442 0.16348 -0.02764
206.00000 0.90415 0.05420 0.03216
206.10000 0.94027 -0.08628 -0.00051
206.20000 0.90829 -0.18739 -0.09737
206.30000 0.96289 -0.30129 0.07288
206.40000 0.90372 -0.26267 -0.01683
206.50000 0.90865 -0.09619 -0.02657
206.60000 0.96084 -0.06945 -0.03697
206.70000 0.92260 -0.08144 0.04165
206.80000 0.95669 0.11436 -0.03008
206.90000 0.86049 0.04349 -0.00967
207.00000 0.94985 0.15338 0.03227
207.10000 0.93846 0.16317 -0.04419
207.20000 0.87844 -0.00806 -0.00764
207.30000 0.91970 -0.11529 -0.00676
207.40000 0.95227 -0.18826 0.01501
207.50000 0.89454 -0.24650 0.02710
207.60000 0.90979 -0.25486 0.00799
207.70000 0.93345 -0.40432 -0.03865
207.80000 0.91429 -0.29591 0.01298
207.90000 0.92127 0.16061 0.02120
208.00000 0.90320 0.25434 -0.02437
208.10000 0.95145 0.26476 -0.05384
208.20000 0.90215 0.11971 -0.00583
208.30000 0.91832 0.05851 0.03101
208.40000 0.97750 0.03689 0.02377
208.50000 0.95115 -0.12760 -0.02970
208.60000 0.88030 -0.04331 -0.03075
208.70000 0.89059 -0.02884 0.02303
208.80000 1.01375 -0.07047 0.01094
208.90000 0.87695 -0.03871 0.00413
209.00000 0.89435 0.06677 0.01942
209.10000 0.98226 0.07594 -0.02043
209.20000 0.84559 0.24653 -0.05107
209.30000 1.00172 0.15145 -0.00614
209.40000 0.93889 0.10687 0.06279
209.50000 0.93255 0.20855 -0.01142
209.60000 0.90586 0.25351 -0.01568
209.70000 0.89386 0.00511 0.02351
209.80000 0.95237 -0.06958 -0.01051
209.90000 0.90301 -0.10330 0.00256
210.00000 0.89509 -0.08333 0.02059
210.10000 0.98406 -0.11752 -0.04950
210.20000 0.88324 0.01737 -0.01306
210.30000 0.98161 0.13341 -0.04193
210.40000 0.87625 0.32641 0.06843
210.50000 0.94307 0.25592 -0.03338
210.60000 0.99621 0.16103 -0.02452
210.70000 0.90455 0.00768 0.03522
210.80000 0.91591 0.03240 0.03739
210.90000 0.90849 0.00664 -0.02101
211.00000 0.90043 0.16477 0.05004
211.10000 0.99009 0.14800 -0.00582
211.20000 0.86777 0.22922 0.04813
211.30000 1.00653 -0.00994 -0.01935
211.40000 0.89773 -0.21115 -0.03327
211.50000 0.95085 -0.35229 -0.00954
211.60000 0.89381 -0.35259 0.01355
211.70000 0.89078 -0.31518 0.00865
211.80000 0.96320 -0.19739 0.01706
211.90000 0.89192 0.04539 0.01590
212.00000 0.95948 0.21156 -0.02819
212.10000 0.91398 0.19688 0.01247
212.20000 0.94612 0.13522 0.05065
212.30000 0.88561 0.14251 -0.03013
212.40000 0.93978 0.22303 -0.01121
212.50000 0.94010 0.01430 0.01158
212.60000 0.81415 -0.18944 0.03131
212.70000 0.98484 -0.03202 0.00750
212.80000 0.90753 0.00111 0.01764
212.90000 0.92930 -0.07067 0.01247
213.00000 0.93218 0.00933 0.03382
213.10000 0.91186 -0.12374 -0.01964
213.20000 0.92525 -0.13445 -0.06141
213.30000 0.87966 -0.09940 0.03980
213.40000 0.97334 -0.24471 -0.01594
213.50000 0.94549 -0.12313 0.02653
213.60000 0.86843 -0.12024 0.01881
213.70000 0.99322 -0.17899 -0.04301
213.80000 0.89034 -0.16689 0.02740
213.90000 1.00174 0.09283 0.01365
214.00000 0.90516 0.15311 -0.03243
214.10000 0.93794 0.10708 0.00962
214.20000 0.94774 0.03559 0.01995
214.30000 0.89066 -0.04806 0.04043
214.40000 0.93626 -0.11511 -0.02479
214.50000 0.96458 -0.15347 -0.06854
214.60000 0.88760 -0.10827 0.04334
214.70000 0.91977 -0.03195 0.03192
214.80000 0.96515 0.02398 0.00831
214.90000 0.91011 0.05757 0.00510
215.00000 0.87350 0.04638 0.06791
215.10000 0.98584 0.14399 -0.01687
215.20000 0.86510 0.01185 -0.07207
215.30000 0.95732 -0.04900 0.00242
215.40000 0.92960 -0.30563 0.05020
215.50000 0.89620 -0.45032 -0.02478
215.60000 0.88954 -0.34995 -0.06746
215.70000 0.91906 -0.11239 -0.01622
215.80000 0.96540 0.07727 0.04574
215.90000 0.90383 0.05630 0.02903
216.00000 0.91105 0.09449 -0.04382
216.10000 0.93664 0.03444 0.01977
216.20000 0.97031 -0.18260 -0.02657
216.30000 0.83088 -0.13041 0.01300
216.40000 1.01353 0.01574 0.05633
216.50000 0.87168 0.11995 0.00313
216.60000 0.87876 -0.00026 -0.00540
216.70000 0.99152 -0.05768 -0.04380
216.80000 0.86624 0.17774 0.01288
216.90000 0.94772 0.05866 -0.02054
217.00000 0.93962 -0.22832 -0.02853
217.10000 0.90196 -0.28997 0.00162
217.20000 0.83606 -0.02832 0.08586
217.30000 1.04215 0.14221 0.03570
217.40000 0.89481 0.00152 -0.08404
217.50000 0.93272 -0.02456 0.01814
217.60000 0.89788 0.08728 -0.02085
217.70000 0.97645 0.10303 -0.02632
217.80000 0.88058 -0.07654 0.03862
217.90000 0.95872 -0.12069 0.02496
218.00000 0.93047 0.03847 -0.03534
218.10000 0.90154 0.00975 -0.00098
218.20000 0.87758 -0.05830 0.05873
218.30000 0.94654 -0.12945 -0.04444
218.40000 0.90625 -0.10306 -0.01078
218.50000 0.95910 -0.11133 0.01000
218.60000 0.91778 -0.09838 0.00429
218.70000 0.98065 0.00458 0.00867
218.80000 0.93430 0.14908 0.00496
218.90000 0.93021 0.11021 0.00382
219.00000 0.86193 -0.01861 0.00500
219.10000 0.96685 -0.04327 0.00334
219.20000 0.84858 -0.08425 -0.06212
219.30000 1.00298 -0.10493 0.02437
219.40000 0.89465 -0.13049 0.09273
219.50000 0.94458 0.00249 0.00287
219.60000 0.90318 0.11960 0.01765
219.70000 0.91884 0.05911 0.02197
219.80000 0.93145 0.00249 0.04445
219.90000 0.89739 -0.04705 -0.04401
220.00000 0.88691 -0.16185 -0.00035
220.10000 0.91995 -0.01594 0.03431
220.20000 0.93649 0.10867 -0.04809
220.30000 0.92317 -0.08414 0.09698
220.40000 0.94819 -0.12239 0.04532
220.50000 0.82505 -0.10894 -0.07486
220.60000 0.95550 -0.14924 -0.03825
220.70000 0.89319 -0.20460 0.02658
220.80000 0.95349 -0.09331 -0.04388
220.90000 0.96045 0.00914 0.01777
221.00000 0.95700 -0.15246 -0.00049
221.10000 0.91190 -0.08523 -0.02542
221.20000 0.93346 0.04954 -0.02917
221.30000 0.94859 0.05811 0.04141
221.40000 0.87128 0.02123 0.00645
221.50000 0.99193 -0.03949 -0.06080
221.60000 0.88225 0.05331 -0.01940
221.70000 0.96453 0.12570 0.03892
221.80000 0.90475 0.12190 -0.03049
221.90000 0.83540 -0.02855 0.01053
222.00000 0.98536 -0.21079 0.00595
222.10000 0.89002 -0.19220 0.01721
222.20000 0.96489 -0.17496 0.00333
222.30000 0.88008 -0.13710 -0.07279
222.40000 0.95408 -0.32663 0.02605
222.50000 0.87639 -0.30718 0.05853
222.60000 0.89774 -0.23880 -0.04685
222.70000 0.95292 0.00264 -0.00646
222.80000 0.89107 0.32533 0.00617
222.90000 0.99531 0.32992 0.05705
223.00000 0.91101 0.25298 0.01336
223.10000 0.93207 0.03085 -0.01462
223.20000 0.97851 -0.09984 0.03600
223.30000 0.89232 -0.11036 0.06385
223.40000 0.93006 0.06326 -0.03456
223.50000 0.95235 0.09564 -0.02792
223.60000 0.84663 0.04098 0.01490
223.70000 0.96607 -0.10634 0.02111
223.80000 0.87010 -0.16378 0.02737
223.90000 0.99168 -0.16747 -0.06890
224.00000 0.83040 0.09615 0.01781
224.10000 1.02598 0.18103 -0.02646
224.20000 0.90775 0.22042 -0.01509
224.30000 0.91422 0.28675 0.04199
224.40000 0.93639 0.30787 -0.03976
224.50000 0.93223 0.00734 0.04834
224.60000 0.98946 -0.04568 0.04288
224.70000 0.87325 -0.11950 0.01827
224.80000 0.97815 -0.20124 -0.05420
224.90000 0.86555 -0.08810 0.04478
225.00000 0.92339 0.19025 0.01723
225.10000 0.97328 0.18587 -0.00254
225.20000 0.87565 0.32906 0.00770
225.30000 0.95114 0.11578 -0.03758
225.40000 0.90173 -0.02764 0.02895
225.50000 0.96669 -0.27885 0.03295
225.60000 0.87457 -0.19750 -0.03674
225.70000 0.94898 -0.23407 0.06999
225.80000 0.81020 0.00049 -0.01841
225.90000 0.94857 0.14384 -0.04305
226.00000 0.87745 0.21005 0.03261
226.10000 0.95486 0.22347 -0.02176
226.20000 0.89492 0.08824 0.05015
226.30000 0.96112 -0.14804 0.06302
226.40000 0.89691 -0.26098 0.00830
226.50000 0.87974 -0.16005 -0.02300
226.60000 0.93357 0.06854 0.02287
226.70000 0.98390 0.06952 -0.05055
226.80000 0.89855 0.00459 -0.00558
226.90000 0.92438 0.00268 0.06547
227.00000 0.92589 -0.01404 -0.03687
227.10000 0.86954 -0.10089 -0.10302
227.20000 0.94015 -0.10790 -0.00434
227.30000 0.89168 0.04123 0.00776
227.40000 0.93390 0.10851 0.02639
227.50000 0.93582 -0.02903 0.02105
227.60000 0.90418 -0.22918 -0.00926
227.70000 0.92063 -0.16273 -0.00689
227.80000 0.96335 -0.00721 -0.02076
227.90000 0.89697 -0.03116 -0.02610
228.00000 0.98690 -0.09608 -0.00694
228.10000 0.86001 -0.05482 0.05698
228.20000 0.94915 0.11929 0.03468
228.30000 0.90748 0.24244 -0.05777
228.40000 0.86083 0.18398 0.03893
228.50000 0.90092 0.17151 0.01070
228.60000 0.93399 0.24330 0.01045
228.70000 0.90238 0.30222 0.03109
228.80000 0.89534 0.14822 0.05333
228.90000 0.93023 0.03063 -0.06031
229.00000 0.91228 0.03029 0.04564
229.10000 0.90074 -0.01663 -0.01295
229.20000 0.92294 0.04187 -0.03767
229.30000 0.88897 -0.03397 0.04149
229.40000 0.93605 -0.08696 0.01015
229.50000 1.00005 -0.27432 -0.02228
229.60000 0.84788 -0.37476 -0.03735
229.70000 0.98724 -0.10777 0.02044
229.80000 0.92471 0.10625 0.04543
229.90000 0.92987 0.23185 0.02970
230.00000 0.91184 0.23933 -0.05807
230.10000 0.87409 0.10498 0.00749
230.20000 0.96765 -0.03609 0.06130
230.30000 0.89366 -0.18425 0.01198
230.40000 0.97310 -0.20217 -0.04882
230.50000 0.92389 0.00210 0.00506
230.60000 0.90113 -0.00926 -0.02651
230.70000 0.94785 -0.07000 0.04058
230.80000 0.90957 -0.05060 -0.03590
230.90000 0.94023 -0.09631 0.02419
231.00000 0.92109 -0.34901 0.07680
231.10000 0.96482 -0.16364 -0.05191
231.20000 0.89935 -0.01719 -0.01877
231.30000 1.00882 0.10692 0.06700
231.40000 0.89698 0.24249 -0.04277
231.50000 1.00510 0.15978 -0.01674
231.60000 0.87170 -0.07795 0.02539
231.70000 0.94530 -0.36504 -0.04331
231.80000 0.93945 -0.19081 -0.02731
231.90000 0.93331 0.03061 0.01378
232.00000 0.90018 0.14499 0.01340
232.10000 0.90638 0.09753 -0.01142
232.20000 0.93539 0.07992 0.06707
232.30000 0.94699 0.00249 -0.01288
232.40000 0.90996 -0.07380 -0.07335
232.50000 0.93739 0.01200 0.04967
232.60000 0.94287 -0.05010 0.05411
232.70000 0.94827 0.04679 -0.04578
232.80000 0.90661 -0.16100 -0.00790
232.90000 0.85977 -0.27197 0.03019
233.00000 0.85699 -0.07044 0.02796
233.10000 0.98039 0.10194 -0.04192
233.20000 0.93776 0.27618 0.02982
233.30000 0.87636 0.29152 -0.01779
233.40000 0.91595 0.13460 0.00551
233.50000 0.93970 -0.03276 -0.00051
233.60000 0.91724 -0.03459 0.02550
233.70000 0.95808 0.14524 -0.01267
233.80000 0.89341 0.19268 -0.01230
233.90000 0.93106 0.11728 -0.00279
234.00000 0.98610 0.07267 -0.01067
234.10000 0.86683 0.02929 0.02781
234.20000 1.00224 -0.07611 -0.01202
234.30000 0.88472 0.01166 -0.03410
234.40000 0.92518 0.00976 -0.07748
234.50000 0.96468 -0.07472 0.03300
234.60000 0.89972 0.01988 0.04431
234.70000 0.92839 -0.03483 -0.02775
234.80000 0.90368 -0.03020 0.05328
234.90000 0.98057 -0.05041 0.00155
235.00000 0.88345 -0.17048 -0.04147
235.10000 1.00895 -0.25362 0.02440
235.20000 0.82693 0.14232 0.02406
235.30000 0.97926 0.24051 0.02446
235.40000 0.90841 0.02817 0.01166
235.50000 0.92524 -0.07381 -0.08384
235.60000 0.90138 -0.15976 0.03334
235.70000 0.85617 -0.01556 0.04539
235.80000 1.00244 -0.18673 -0.08948
235.90000 0.90415 -0.21109 0.00709
236.00000 0.92962 -0.16875 0.01431
236.10000 0.93556 -0.11285 -0.00824
236.20000 0.90946 -0.01361 0.01522
236.30000 0.92645 0.12126 -0.00022
236.40000 0.96689 0.02357 0.00533
236.50000 0.92508 -0.29305 -0.03046
236.60000 0.87501 -0.24586 -0.01498
236.70000 0.97724 -0.02253 0.04982
236.80000 0.89555 -0.05290 -0.02777
236.90000 0.89364 -0.18437 -0.02160
237.00000 0.93134 0.00771 0.00194
237.10000 0.95095 0.16453 -0.01053
237.20000 0.88177 0.18414 0.03374
237.30000 0.98793 -0.01082 -0.02922
237.40000 0.87024 -0.11218 0.05399
237.50000 0.94731 -0.10573 -0.02276
237.60000 0.94390 0.07470 0.02210
237.70000 0.96657 0.13275 0.02813
237.80000 0.87578 -0.05756 -0.00610
237.90000 0.93806 -0.26752 0.00790
238.00000 0.97573 -0.33900 0.00462
238.10000 0.90484 -0.10224 0.00808
238.20000 0.95178 0.11963 0.00862
238.30000 0.90530 0.04446 0.01301
238.40000 0.86671 -0.07638 -0.03108
238.50000 1.01148 -0.03725 -0.02745
238.60000 0.86142 -0.20300 -0.01615
238.70000 0.91906 -0.14360 -0.00967
238.80000 0.97019 0.11362 0.01451
238.90000 0.95679 0.31252 0.05496
239.00000 0.96609 0.23579 -0.04277
239.10000 0.92093 0.03565 -0.03188
239.20000 0.93758 -0.06513 -0.04150
239.30000 0.93422 -0.10343 -0.00615
239.40000 0.88782 0.12563 0.05371
239.50000 0.91134 -0.02644 -0.02993
239.60000 0.90922 0.01010 0.02719
239.70000 0.97370 0.08289 -0.00090
239.80000 0.91435 0.05807 0.08537
239.90000 0.94103 0.03482 -0.05237
240.00000 0.84543 0.02021 -0.04407
240.10000 1.05981 0.20553 0.03143
240.20000 0.84592 0.23500 0.01797
240.30000 0.92447 0.16912 -0.00695
240.40000 0.92606 0.03111 -0.04405
240.50000 0.92631 -0.04532 0.03115
240.60000 1.00746 -0.15119 0.01195
240.70000 0.91109 -0.00194 0.00202
240.80000 0.92600 0.06552 0.01913
240.90000 0.92793 -0.02907 -0.02176
241.00000 0.94585 0.03381 0.00806
241.10000 0.88044 0.26066 0.03339
241.20000 0.96112 0.31688 0.03346
241.30000 0.92162 0.17372 -0.04266
241.40000 0.95700 -0.00807 -0.03445
241.50000 0.93377 -0.10312 0.01744
241.60000 0.91934 -0.14483 -0.03381
241.70000 0.95014 -0.15496 -0.00496
241.80000 0.88722 -0.08134 0.00184
241.90000 1.00072 -0.02118 -0.01307
242.00000 0.89525 0.14619 -0.04755
242.10000 0.93686 0.26703 -0.01147
242.20000 0.97943 0.12363 0.01655
242.30000 0.84956 -0.09088 -0.05621
242.40000 0.95738 0.06524 0.02830
242.50000 0.90601 0.13469 0.03696
242.60000 0.94358 -0.01066 -0.02479
242.70000 0.92031 -0.11128 -0.00915
242.80000 0.88332 -0.09325 -0.02733
242.90000 0.99633 -0.01822 -0.01028
243.00000 0.88351 0.08465 0.05588
243.10000 0.94716 0.13307 -0.05584
243.20000 0.96766 0.00791 0.02932
243.30000 0.89727 0.10623 0.03565
243.40000 0.89361 0.14450 -0.04300
243.50000 0.94130 0.15065 -0.04066
243.60000 0.92457 0.04335 0.05453
243.70000 0.98600 0.00304 -0.03164
243.80000 0.84461 -0.04774 0.00076
243.90000 1.00810 0.10185 0.02676
244.00000 0.82383 0.01280 -0.00849
244.10000 0.97633 -0.00535 -0.07582
244.20000 0.87145 -0.00734 0.01547
244.30000 0.93419 0.00214 -0.03274
244.40000 0.91233 -0.01131 -0.01610
244.50000 0.90539 -0.11716 -0.01192
244.60000 0.93485 0.00286 0.02257
244.70000 0.89338 0.19978 -0.00698
244.80000 0.90328 0.20743 -0.02475
244.90000 0.98215 0.13171 -0.03215
245.00000 0.94888 -0.09989 0.05195
245.10000 0.88306 -0.17106 -0.04958
245.20000 0.97267 -0.01652 0.02539
245.30000 0.87865 0.04192 0.05325
245.40000 0.96804 0.04864 0.00920
245.50000 0.93883 0.03792 0.02252
245.60000 0.87694 0.02012 0.01287
245.70000 0.95849 0.09471 -0.00648
245.80000 0.86505 0.11332 -0.00662
245.90000 0.96331 -0.07327 -0.00937
246.00000 0.89221 -0.05244 0.05720
246.10000 0.97618 0.21188 0.03129
246.20000 0.87380 0.27031 -0.04818
246.30000 0.96444 0.05619 0.03163
246.40000 0.92016 0.05310 -0.02884
246.50000 0.85762 0.10638 -0.03957
246.60000 0.93139 0.11613 0.06241
246.70000 0.99820 -0.18201 -0.06437
246.80000 0.89504 -0.10460 -0.01535
246.90000 0.92619 0.20935 0.04215
247.00000 0.86636 0.14911 0.03731
247.10000 0.97426 -0.05635 -0.08737
247.20000 0.89468 -0.10447 0.04644
247.30000 0.85327 -0.10040 -0.01012
247.40000 1.01422 -0.04629 -0.00229
247.50000 0.90393 0.11352 -0.00086
247.60000 0.93894 0.31701 0.04299
247.70000 1.01427 0.37635 -0.02078
247.80000 0.92493 0.31475 0.02907
247.90000 0.93716 0.17687 0.06918
248.00000 0.89112 0.08750 -0.00003
248.10000 0.92795 -0.03199 -0.07239
248.20000 0.99876 0.02017 0.08638
248.30000 0.85308 0.06624 -0.01539
248.40000 0.95765 0.02417 0.03513
248.50000 0.91195 0.03628 -0.00612
248.60000 0.96766 0.01865 0.01163
248.70000 0.87183 0.02609 -0.00048
248.80000 0.91825 0.03237 -0.02299
248.90000 0.97058 0.00436 -0.01060
249.00000 0.91910 -0.00720 0.02786
249.10000 0.92661 -0.19739 0.02274
249.20000 0.95589 -0.34966 -0.10148
249.30000 0.91777 -0.33206 0.05958
249.40000 0.93985 -0.17842 -0.05975
249.50000 0.90543 0.00935 0.01749
249.60000 0.93404 0.08548 0.05744
249.70000 0.92216 0.02371 -0.06621
249.80000 0.90554 0.06293 0.00393
249.90000 1.00381 0.03768 0.02882
250.00000 0.88683 -0.20352 0.00876
250.10000 0.95832 -0.32960 0.03271
250.20000 0.90097 -0.02881 -0.04400
250.30000 0.92589 -0.04371 0.04165
250.40000 0.92767 -0.04621 -0.03829
250.50000 0.93909 0.08473 0.01054
250.60000 0.91451 -0.05974 0.02277
250.70000 0.92726 -0.19428 -0.00733
250.80000 0.89935 -0.31471 -0.06293
250.90000 0.95109 -0.32291 -0.01895
251.00000 0.92662 -0.22816 0.05485
251.10000 0.89079 0.08975 0.02373
251.20000 0.98922 0.38098 0.01009
251.30000 0.90692 0.22946 -0.00212
251.40000 1.00591 0.01820 -0.02629
251.50000 0.91015 -0.05564 0.01396
251.60000 0.93249 -0.03609 0.00541
251.70000 0.92480 0.00060 0.04716
251.80000 0.97600 0.15321 0.00192
251.90000 0.91077 0.33357 -0.01037
252.00000 0.94126 0.20264 0.02864
252.10000 0.91174 -0.00126 0.06605
252.20000 0.91126 -0.06223 -0.02897
252.30000 0.94803 -0.02633 -0.02908
252.40000 0.94519 0.17490 0.02622
252.50000 0.99006 0.32265 0.00888
252.60000 0.91426 0.32336 0.02024
252.70000 0.94210 0.04376 -0.00951
252.80000 0.89651 -0.03072 0.00544
252.90000 0.88515 -0.06968 0.03014
253.00000 0.96253 -0.14111 -0.06179
253.10000 0.90931 -0.16647 0.00009
253.20000 0.94549 -0.10873 0.03121
253.30000 0.92875 -0.01889 -0.02206
253.40000 0.89870 0.16322 -0.01740
253.50000 0.95007 0.27364 0.09491
253.60000 0.94031 0.14392 -0.04987
253.70000 0.90596 0.00307 -0.00846
253.80000 0.91809 0.03130 0.06563
253.90000 0.92299 0.08345 -0.02317
254.00000 0.89002 -0.03815 0.00182
254.10000 0.94394 -0.02592 0.01724
254.20000 0.93114 0.23171 -0.00936
254.30000 0.87260 0.36509 0.01392
254.40000 0.97088 0.28979 0.01923
254.50000 0.92521 0.12196 0.01968
254.60000 0.93622 -0.17128 -0.05280
254.70000 0.91295 -0.19170 0.00494
254.80000 0.95825 -0.10551 0.00322
254.90000 0.93159 -0.14572 -0.01564
255.00000 0.92893 -0.11526 -0.04333
255.10000 0.91451 -0.20048 0.06994
255.20000 0.90911 -0.38236 0.02451
255.30000 0.96657 -0.10813 0.01590
255.40000 0.87619 0.10924 0.02082
255.50000 1.03759 0.32236 -0.03531
255.60000 0.83513 0.15626 0.03657
255.70000 0.94045 -0.04150 -0.01175
255.80000 0.91264 -0.19091 -0.00190
255.90000 0.86234 -0.06993 0.02458
256.00000 0.96143 0.03013 0.04798
256.10000 0.88273 -0.03689 0.01020
256.20000 0.91770 -0.18581 -0.02316
256.30000 0.93125 -0.13976 -0.02629
256.40000 0.88735 -0.06749 0.05352
256.50000 0.97204 -0.07375 0.01289
256.60000 0.88149 -0.24604 0.02778
256.70000 0.98470 -0.23732 -0.01341
256.80000 0.92061 -0.14868 -0.02230
256.90000 0.85429 -0.04377 0.09684
257.00000 1.01054 0.05798 -0.03723
257.10000 0.82858 0.04280 0.03844
257.20000 0.99869 -0.02244 0.00523
257.30000 0.91361 -0.15722 -0.01637
257.40000 0.93456 -0.08436 0.04605
257.50000 0.97142 0.09356 0.02865
257.60000 0.76540 0.10712 -0.07831
257.70000 1.02596 0.03064 0.00967
257.80000 0.86828 0.02108 0.02936
257.90000 0.96089 -0.01008 0.02761
258.00000 0.86678 -0.02569 0.05191
258.10000 1.00491 -0.08171 -0.02297
258.20000 0.93019 -0.10556 -0.01350
258.30000 0.89022 0.14584 0.01867
258.40000 0.94219 0.19957 -0.00950
258.50000 0.96268 0.16469 0.01321
258.60000 0.88805 0.08432 0.02338
258.70000 0.92028 0.03073 -0.00794
258.80000 0.97987 -0.04222 -0.02697
258.90000 0.87245 -0.11262 0.01528
259.00000 0.91435 -0.10129 0.00698
259.10000 0.88805 -0.10047 -0.01735
259.20000 0.94904 0.06946 -0.00387
259.30000 0.91951 0.07437 0.01104
259.40000 0.88795 0.10715 -0.00113
259.50000 0.97107 0.34149 -0.01591
259.60000 0.93618 0.21981 -0.01792
259.70000 0.92790 0.01476 -0.00049
259.80000 0.87120 -0.08198 -0.01205
259.90000 0.95606 -0.18505 0.00437
260.00000 0.97494 -0.15684 -0.03301
260.10000 0.88512 0.06514 -0.00956
260.20000 0.99153 0.10925 -0.03875
260.30000 0.78560 0.14594 0.03666
260.40000 1.03966 0.02993 0.03231
260.50000 0.84627 -0.10072 -0.00386
260.60000 0.98075 -0.13206 0.01920
260.70000 0.89344 -0.07190 0.04395
260.80000 0.89107 0.06376 0.02957
260.90000 0.94124 0.13146 -0.03850
261.00000 0.90735 0.16456 -0.04669
261.10000 0.99358 0.04488 0.02732
261.20000 0.87291 -0.16516 -0.01154
261.30000 0.93212 -0.16356 -0.01712
261.40000 0.89480 -0.03768 0.01365
261.50000 0.92291 0.05266 -0.00791
261.60000 0.90091 0.10854 -0.07417
261.70000 0.92103 0.09708 0.03702
261.80000 0.88672 -0.05965 0.01275
261.90000 0.98107 -0.10034 -0.00001
262.00000 0.89356 0.10263 0.02390
262.10000 0.90143 0.00035 -0.02554
262.20000 0.92289 -0.05101 -0.02982
262.30000 0.92883 0.05871 0.02151
262.40000 0.93754 0.05585 -0.05529
262.50000 0.87561 -0.09164 -0.01815
262.60000 0.97623 -0.08401 0.04039
262.70000 0.92979 -0.01534 -0.02781
262.80000 0.86112 0.03238 -0.02164
262.90000 0.95424 0.03401 0.02314
263.00000 0.94944 0.05158 -0.02728
263.10000 0.91407 0.04124 -0.03542
263.20000 0.90771 -0.03804 0.03592
263.30000 0.88008 0.07247 -0.03331
263.40000 0.97653 0.05384 0.01109
263.50000 0.91898 -0.02497 -0.06632
263.60000 0.94096 -0.08927 -0.00060
263.70000 0.98416 0.07361 -0.00127
263.80000 0.88724 0.04814 0.06902
263.90000 0.94252 0.05368 0.00707
264.00000 0.91281 0.05985 0.01510
264.10000 0.97192 -0.09385 -0.01634
264.20000 0.96119 -0.12378 -0.04271
264.30000 0.89909 -0.18975 -0.03342
264.40000 0.94620 -0.19287 -0.02329
264.50000 0.91676 -0.07984 0.05703
264.60000 1.01559 -0.00888 -0.01331
264.70000 0.88076 0.08531 -0.05321
264.80000 1.01273 0.00998 0.02439
264.90000 0.84983 -0.02024 0.01028
265.00000 0.90714 -0.01825 -0.00543
265.10000 0.94650 0.06127 0.02891
265.20000 0.83606 0.26550 -0.04798
265.30000 0.95303 0.29563 0.00193
265.40000 0.92881 0.07265 0.01232
265.50000 0.90586 -0.14902 0.00583
265.60000 0.97146 -0.27631 0.04005
265.70000 0.93550 -0.13318 0.01277
265.80000 0.85901 0.01648 -0.00708
265.90000 0.91185 0.29296 -0.00544
266.00000 0.98653 0.34874 -0.03528
266.10000 0.86992 0.32325 0.02641
266.20000 0.98753 0.11260 0.02254
266.30000 0.89074 -0.15179 -0.02282
266.40000 0.96801 -0.16925 -0.03546
266.50000 0.90795 0.07760 -0.02465
266.60000 0.93605 0.08462 0.00051
266.70000 0.96169 0.02666 0.01559
266.80000 0.91642 -0.02791 0.02224
266.90000 0.98648 -0.06765 -0.02783
267.00000 0.91316 -0.03761 0.03929
267.10000 0.94073 0.06703 0.01635
267.20000 0.93481 0.19591 -0.01437
267.30000 0.90792 0.01570 -0.03045
267.40000 0.95084 -0.20331 0.06287
267.50000 0.92042 -0.16918 -0.01441
267.60000 0.94046 -0.12677 -0.04615
267.70000 0.86508 0.01850 0.03214
267.80000 0.94274 -0.01271 -0.03304
267.90000 0.93893 -0.15944 0.03305
268.00000 0.93077 -0.02883 -0.01025
268.10000 0.88445 -0.16558 -0.03692
268.20000 0.93927 -0.22361 0.01307
268.30000 0.97158 -0.05913 0.00651
268.40000 0.88995 -0.03923 0.00062
268.50000 0.93316 0.00208 -0.05281
268.60000 0.95603 0.05823 0.05283
268.70000 0.87742 0.08361 0.03861
268.80000 0.94229 0.07761 0.00649
268.90000 0.93498 -0.12634 -0.00628
269.00000 0.87518 -0.14813 -0.03990
269.10000 0.96190 -0.05710 0.01857
269.20000 0.91177 -0.03635 0.03849
269.30000 0.89795 0.22175 -0.01669
269.40000 0.98899 0.46579 -0.00666
269.50000 0.93277 0.25925 0.04138
269.60000 0.94283 -0.03702 -0.01656
269.70000 1.00364 -0.14900 -0.04013
269.80000 0.83679 -0.10818 0.05875
269.90000 0.96911 -0.15461 -0.00449
270.00000 0.97373 -0.04229 -0.04666
270.10000 0.92829 0.12804 0.01151
270.20000 0.87553 0.11640 -0.01162
270.30000 0.97169 0.00562 -0.01071
270.40000 0.89012 0.00613 -0.00974
270.50000 0.95371 -0.01902 0.03550
270.60000 0.90236 -0.01780 0.01397
270.70000 0.93033 0.01819 -0.02221
270.80000 0.89365 0.03503 0.02409
270.90000 0.96383 0.08827 0.05067
271.00000 0.93603 0.03232 -0.02586
271.10000 0.87647 -0.14366 0.00196
271.20000 1.02607 -0.32039 0.05009
271.30000 0.81818 -0.21770 -0.01448
271.40000 1.02411 0.07043 -0.01054
271.50000 0.82919 0.27142 0.08034
271.60000 0.92951 0.20979 0.00014
271.70000 0.93103 0.01599 -0.00778
271.80000 0.88584 -0.25077 -0.03297
271.90000 0.87899 -0.19329 -0.00320
272.00000 0.91327 -0.05587 -0.06606
272.10000 0.91843 0.05193 0.04672
272.20000 0.97039 -0.03359 0.01913
272.30000 0.92385 0.01878 -0.09259
272.40000 0.91632 -0.01786 0.07404
272.50000 0.87850 0.04578 0.02472
272.60000 0.99571 -0.00245 -0.00228
272.70000 0.86179 -0.05010 0.00570
272.80000 0.93197 0.13138 -0.02012
272.90000 0.92694 0.22758 0.00104
273.00000 0.88337 0.12294 -0.03359
273.10000 0.94635 -0.01786 0.01258
273.20000 0.94923 -0.17074 0.09218
273.30000 0.90714 -0.12154 -0.01650
273.40000 0.89929 0.08014 -0.05382
273.50000 0.95468 0.10965 -0.04004
273.60000 0.93096 0.16057 0.04598
273.70000 0.91866 0.10170 -0.04896
273.80000 0.94703 0.18984 -0.04240
273.90000 0.94708 0.15382 0.04272
274.00000 0.91352 0.00755 -0.02995
274.10000 0.94071 -0.25559 -0.05507
274.20000 0.89561 -0.31470 0.08703
274.30000 1.00157 -0.15269 -0.01216
274.40000 0.84186 0.05027 -0.04824
274.50000 1.04246 0.09765 0.00689
274.60000 0.88920 0.17396 0.02488
274.70000 0.99318 0.11160 0.02031
274.80000 0.89161 -0.03134 -0.00969
274.90000 0.93571 -0.24350 -0.02438
275.00000 0.96321 -0.28478 0.02019
275.10000 0.90166 -0.13638 0.00328
275.20000 0.92640 0.09657 0.03986
275.30000 0.95131 0.16032 -0.00351
275.40000 0.94344 -0.16637 0.01356
275.50000 0.91680 -0.27614 0.03142
275.60000 0.92369 -0.12594 -0.04792
275.70000 0.90775 -0.14360 -0.04801
275.80000 0.93072 -0.05606 -0.02380
275.90000 0.84812 -0.01628 -0.02132
276.00000 0.97219 0.15616 0.02430
276.10000 0.87166 0.49228 -0.01219
276.20000 0.91180 0.48481 0.00745
276.30000 0.92883 0.20802 0.01209
276.40000 0.91393 -0.03210 -0.02096
276.50000 0.86825 -0.16711 0.04045
276.60000 0.99116 -0.08737 0.03190
276.70000 0.87549 -0.04903 -0.00655
276.80000 0.95459 0.15679 0.01756
276.90000 0.87316 0.23143 -0.01845
277.00000 0.97295 -0.06399 -0.01255
277.10000 0.94445 -0.28771 -0.00985
277.20000 0.92955 -0.20715 0.03316
277.30000 0.95896 -0.13597 -0.04128
277.40000 0.95930 0.07708 0.02619
277.50000 0.88512 0.16866 0.02961
277.60000 0.93594 0.03391 -0.07373
277.70000 0.92204 -0.05043 0.01854
277.80000 0.91622 0.01685 0.02491
277.90000 0.96767 0.08508 -0.03261
278.00000 0.95723 -0.03380 -0.04014
278.10000 0.94760 -0.23025 0.02093
278.20000 0.90948 -0.24233 -0.02910
278.30000 0.97238 -0.06016 -0.00231
278.40000 0.88093 0.06781 0.04690
278.50000 1.03578 0.14756 0.06237
278.60000 0.88927 0.14491 -0.02636
278.70000 0.94384 0.08883 -0.09555
278.80000 0.97941 0.13110 0.12147
278.90000 0.81660 0.16788 -0.00365
279.00000 1.04350 0.07107 -0.01774
279.10000 0.82968 0.07920 -0.00171
279.20000 0.98257 0.21275 0.00564
279.30000 0.83189 0.18373 0.06332
279.40000 0.95372 -0.04072 -0.00138
279.50000 0.92937 -0.16585 0.02559
279.60000 0.88251 -0.24690 0.00691
279.70000 0.96184 -0.30616 -0.03261
279.80000 0.93097 -0.26144 0.02944
279.90000 0.92241 -0.09837 -0.02123
280.00000 0.86410 0.03084 0.05480
280.10000 1.04059 -0.01747 -0.03705
280.20000 0.88462 -0.14883 -0.01097
280.30000 0.92842 -0.17954 0.03262
280.40000 0.90831 -0.03584 -0.00799
280.50000 0.93846 0.01016 -0.00649
280.60000 0.86133 0.17018 0.04269
280.70000 0.97002 0.19265 0.02973
280.80000 0.85261 0.03694 -0.09271
280.90000 0.94882 -0.00364 0.03807
281.00000 0.95757 0.01082 0.02008
281.10000 0.90801 0.16207 -0.05300
281.20000 1.02874 0.17268 0.00496
281.30000 0.82581 0.14985 0.00095
281.40000 0.95096 0.11598 -0.01279
281.50000 0.94410 0.00607 0.03734
281.60000 0.99178 -0.14047 0.01840
281.70000 0.88978 -0.18001 -0.00353
281.80000 0.96877 -0.09196 0.01468
281.90000 0.97905 -0.16408 -0.00478
282.00000 0.89225 -0.19004 -0.00350
282.10000 1.00054 -0.01299 0.04615
282.20000 0.88734 0.14762 -0.02387
282.30000 0.98328 0.10350 -0.01139
282.40000 0.87254 -0.00519 -0.02477
282.50000 0.92678 0.17866 0.04949
282.60000 0.90314 0.14193 0.01103
282.70000 0.98151 -0.05408 -0.01725
282.80000 0.93645 -0.03570 -0.04247
282.90000 0.93740 0.08573 -0.03463
283.00000 0.88512 0.01509 0.04136
283.10000 0.98681 -0.19455 -0.01948
283.20000 0.93537 -0.20492 0.00447
283.30000 0.85998 -0.04374 0.09115
283.40000 1.01089 0.12339 -0.01187
283.50000 0.83197 0.21228 0.02778
283.60000 0.92609 0.35868 0.00273
283.70000 0.96751 0.14906 -0.04160
283.80000 0.87612 -0.10662 -0.00096
283.90000 0.93618 -0.21760 0.04684
284.00000 0.87462 -0.12384 0.04663
284.10000 0.97426 -0.00696 -0.10823
284.20000 0.91915 0.02361 0.02760
284.30000 0.93083 0.01502 0.06274
284.40000 1.00257 0.04592 -0.06309
284.50000 0.92707 0.01160 0.01116
284.60000 0.89380 -0.05487 -0.05208
284.70000 0.99299 -0.15402 -0.05101
284.80000 0.88213 -0.09082 0.03282
284.90000 0.87448 -0.20874 0.06345
285.00000 0.95016 -0.42969 -0.00377
285.10000 0.94973 -0.38052 -0.03460
285.20000 0.91734 -0.22060 -0.01744
285.30000 0.91634 -0.04966 0.03910
285.40000 0.95773 0.03290 0.00581
285.50000 0.87410 0.10816 -0.04170
285.60000 0.94805 -0.11377 0.07057
285.70000 0.90536 -0.35965 -0.05076
285.80000 0.95021 -0.00437 0.03163
285.90000 0.89250 0.24418 0.02435
286.00000 0.97368 0.18005 -0.05123
286.10000 0.90520 0.09575 0.01158
286.20000 0.87650 0.07588 -0.02561
286.30000 0.98432 -0.01731 -0.00555
286.40000 0.91969 -0.11285 0.07557
286.50000 0.89801 -0.08339 -0.02749
286.60000 0.93892 0.04824 -0.00222
286.70000 0.94867 -0.00829 -0.03052
286.80000 0.95145 0.08852 -0.00636
286.90000 0.92788 0.21093 -0.01929
287.00000 0.92258 0.12352 -0.02086
287.10000 0.82768 0.15896 0.06374
287.20000 0.97903 0.27907 -0.02750
287.30000 0.87196 0.22614 -0.01820
287.40000 0.93910 0.13376 0.05047
287.50000 0.98049 -0.05801 0.02309
287.60000 0.85813 -0.10442 0.01051
287.70000 0.93568 -0.06315 -0.08927
287.80000 0.91540 0.00693 0.06014
287.90000 0.91997 0.01625 -0.05687
288.00000 0.87925 0.13049 0.01839
288.10000 0.91470 0.14785 -0.01124
288.20000 0.95343 0.06042 -0.00876
288.30000 0.87636 -0.03961 -0.01831
288.40000 1.03854 -0.09189 -0.03786
288.50000 0.88310 -0.33399 0.04575
288.60000 0.88843 -0.32921 0.04833
288.70000 0.95208 -0.16392 -0.02004
288.80000 0.91323 -0.04107 -0.05890
288.90000 0.93302 -0.08675 -0.04556
289.00000 0.96136 -0.09905 0.00535
289.10000 0.88011 -0.05557 0.02496
289.20000 0.94796 0.00960 0.03071
289.30000 0.90569 0.06478 -0.01095
289.40000 0.93101 -0.10609 0.01954
289.50000 0.91510 -0.18423 -0.01759
289.60000 0.91352 -0.28839 -0.03575
289.70000 0.97713 -0.16581 0.00062
289.80000 0.86375 -0.07565 -0.02265
289.90000 0.99505 -0.06301 0.00227
290.00000 0.89661 0.04102 0.01188
290.10000 0.96252 -0.00136 -0.04887
290.20000 0.88220 -0.14499 -0.02549
290.30000 0.94709 -0.15289 -0.04181
290.40000 0.91863 0.10127 -0.02574
290.50000 0.92150 0.20381 -0.00572
290.60000 0.94942 0.21484 0.00976
290.70000 0.92251 0.23586 -0.04302
290.80000 0.95059 0.05799 0.01499
290.90000 0.88287 -0.11338 0.02061
291.00000 0.87370 -0.13262 -0.05067
291.10000 0.96121 0.03151 0.00524
291.20000 0.87722 0.23548 0.07228
291.30000 0.92257 0.15833 -0.06663
291.40000 1.00124 -0.25303 -0.02011
291.50000 0.83676 -0.20137 -0.02498
291.60000 0.96333 0.02168 -0.01232
291.70000 0.93343 0.16579 -0.04538
291.80000 0.93360 0.10296 -0.07165
291.90000 0.92297 -0.21253 0.03735
292.00000 0.93417 -0.14961 0.00732
292.10000 0.93685 0.21817 -0.01774
292.20000 0.93537 0.08156 0.02813
292.30000 0.97172 0.03890 -0.00156
292.40000 0.85349 -0.06525 0.00387
292.50000 1.01987 -0.13478 0.04854
292.60000 0.86804 -0.24562 -0.04696
292.70000 0.97221 -0.10505 0.04967
292.80000 0.91042 0.05326 -0.01233
292.90000 0.92932 -0.01217 -0.03849
293.00000 0.93482 -0.24598 0.01186
293.10000 0.94025 -0.04833 0.06079
293.20000 0.88012 0.12836 -0.02094
293.30000 0.93135 0.05547 -0.01937
293.40000 0.90356 0.12280 -0.00668
293.50000 0.89395 0.07165 0.01675
293.60000 0.96741 0.07590 -0.02096
293.70000 0.92458 -0.05255 -0.00103
293.80000 0.91078 -0.18159 -0.04476
293.90000 0.93757 -0.18549 -0.02448
294.00000 0.94405 0.01215 0.02279
294.10000 0.91156 0.20765 -0.04530
294.20000 0.96008 0.24646 0.00543
294.30000 0.88397 0.23959 0.04131
294.40000 0.93578 0.25500 -0.00275
294.50000 0.90982 0.09549 -0.05601
294.60000 0.87775 -0.01827 -0.00647
294.70000 0.95728 0.08133 0.04802
294.80000 0.93602 0.25108 -0.00395
294.90000 0.99270 0.33161 -0.01589
295.00000 0.90394 0.24473 -0.03873
295.10000 0.90525 0.14924 0.00677
295.20000 0.95818 0.09527 0.03839
295.30000 0.87036 0.10870 -0.02449
295.40000 0.94116 0.01608 -0.03909
295.50000 0.94521 0.02003 0.03788
295.60000 0.94819 0.07266 -0.00380
295.70000 0.89223 0.00646 -0.01835
295.80000 0.95589 -0.07007 -0.04932
295.90000 0.91378 0.07032 -0.01126
296.00000 0.93858 0.20266 -0.00544
296.10000 0.88405 0.09850 -0.02627
296.20000 0.88145 -0.13781 -0.06399
296.30000 0.98161 -0.13380 0.06474
296.40000 0.86760 -0.10230 0.02419
296.50000 0.99462 -0.01951 -0.02467
296.60000 0.89362 0.01909 0.01820
296.70000 0.97512 0.03263 0.02124
296.80000 0.97859 -0.03527 -0.02751
296.90000 0.84284 -0.10982 0.04386
297.00000 0.94303 -0.03046 0.05020
297.10000 0.92170 0.03812 -0.04611
297.20000 0.92857 0.13056 -0.00894
297.30000 0.92228 0.14475 0.02156
297.40000 0.94247 0.08577 -0.02838
297.50000 0.89063 -0.02602 -0.00825
297.60000 0.96090 -0.05763 -0.01306
297.70000 0.94954 -0.00637 0.04157
297.80000 0.83198 0.09135 -0.04243
297.90000 1.02160 -0.01409 0.04453
298.00000 0.82981 -0.07782 0.00392
298.10000 0.96154 -0.04883 0.00229
298.20000 0.86515 -0.11971 0.05221
298.30000 0.97091 -0.15220 -0.04766
298.40000 0.95100 0.06829 -0.03609
298.50000 0.89296 0.22947 0.03775
298.60000 0.97592 0.09766 -0.00444
298.70000 0.88891 -0.04124 -0.01204
298.80000 0.90672 0.06707 0.01770
298.90000 0.91350 -0.18660 0.05368
299.00000 0.96010 -0.24094 -0.04963
299.10000 0.90007 -0.21068 -0.03179
299.20000 0.93737 -0.17101 -0.01153
299.30000 0.91130 0.05524 -0.02143
299.40000 0.92014 0.12415 0.00108
299.50000 0.94079 0.16678 -0.02464
299.60000 0.97515 0.18877 -0.00244
299.70000 0.87502 0.14668 -0.03748
299.80000 0.91289 0.14843 0.05501
299.90000 0.96138 0.00893 -0.03671
300.00000 0.88295 -0.22032 0.00615
300.10000 0.92208 -0.11502 -0.02161
300.20000 0.90067 0.11153 0.01241
300.30000 0.90828 0.14885 0.01060
300.40000 0.98016 -0.05477 0.00962
300.50000 0.88202 -0.20139 -0.06093
300.60000 0.96624 -0.19858 -0.03630
300.70000 0.95544 0.10426 0.03212
300.80000 0.91427 0.20030 -0.04384
300.90000 0.90704 0.24183 -0.03688
301.00000 0.93267 0.26766 0.06875
301.10000 0.94478 0.13021 0.02591
301.20000 0.89541 0.22768 -0.08076
301.30000 0.89286 0.10822 -0.00950
301.40000 0.92662 -0.00103 0.04559
301.50000 1.00387 -0.12309 -0.00421
301.60000 0.90244 -0.19786 -0.03234
301.70000 0.84316 -0.23560 0.01467
301.80000 1.03522 -0.05917 0.03701
301.90000 0.89221 -0.03990 0.02627
302.00000 0.92020 -0.08299 0.00446
302.10000 0.93960 -0.02256 0.06309
302.20000 0.92195 -0.07855 -0.02410
302.30000 0.95940 0.02442 -0.00251
302.40000 0.89829 0.28131 0.06768
302.50000 0.92882 0.34345 0.03121
302.60000 0.90714 0.06857 -0.06370
302.70000 0.89088 -0.04073 -0.01504
302.80000 0.97414 0.05673 0.03442
302.90000 0.87615 0.00604 -0.03968
303.00000 0.97433 0.16829 -0.02427
303.10000 0.84208 0.13902 0.08196
303.20000 0.93191 0.14900 -0.03237
303.30000 0.97332 0.04273 0.01716
303.40000 0.89871 -0.07268 -0.00776
303.50000 0.96385 -0.34190 -0.04653
303.60000 0.90261 -0.34212 0.01702
303.70000 0.92616 -0.00923 0.05981
303.80000 0.85860 0.09543 -0.05639
303.90000 0.99244 -0.03625 0.02962
304.00000 0.96046 0.02377 0.01770
304.10000 0.92058 0.10195 -0.01334
304.20000 0.94205 -0.06954 -0.01071
304.30000 0.84784 -0.09717 -0.00510
304.40000 0.95395 0.19741 0.00532
304.50000 0.92400 0.12130 -0.03495
304.60000 0.86486 -0.06445 0.01032
304.70000 0.95395 -0.04361 -0.03921
304.80000 0.83423 -0.10428 -0.01791
304.90000 0.95435 0.02571 0.07295
305.00000 0.91445 0.10741 -0.04126
305.10000 0.90489 0.02523 -0.01633
305.20000 0.94086 -0.00789 0.04201
305.30000 0.86039 0.04475 -0.04865
305.40000 0.91322 -0.02103 0.00182
305.50000 0.97478 -0.05345 0.02069
305.60000 0.86819 -0.00612 0.01979
305.70000 0.93956 0.15713 -0.01163
305.80000 0.90463 0.31328 0.03712
305.90000 0.95208 0.36039 -0.00422
306.00000 0.92980 0.36293 0.00795
306.10000 0.91987 0.28441 -0.00248
306.20000 0.96356 0.05720 -0.02791
306.30000 0.86282 -0.05728 0.02465
306.40000 0.93302 -0.04296 -0.02459
306.50000 0.95671 0.03372 -0.05700
306.60000 0.96180 0.17464 0.04538
306.70000 0.84146 0.15239 -0.02353
306.80000 0.97003 0.11219 -0.02006
306.90000 0.84964 -0.07507 0.06045
307.00000 1.00418 0.04221 -0.00790
307.10000 0.85488 0.13444 -0.01421
307.20000 0.88943 0.06411 -0.00021
307.30000 0.96425 0.00144 0.00665
307.40000 0.90824 -0.10469 -0.06473
307.50000 0.94905 -0.09947 0.07611
307.60000 0.93875 -0.08672 0.02508
307.70000 0.98708 0.03895 -0.02358
307.80000 0.93374 0.30731 0.04485
307.90000 0.94565 0.30163 0.01996
308.00000 0.87860 0.24580 -0.05774
308.10000 0.97692 0.13896 0.00770
308.20000 0.90091 -0.06474 0.07444
308.30000 0.97590 -0.17504 -0.06592
308.40000 0.86870 -0.26127 -0.00823
308.50000 0.96333 -0.06718 -0.02473
308.60000 0.92562 0.05891 0.04992
308.70000 0.94485 0.02405 0.01399
308.80000 0.89287 -0.02101 0.01402
308.90000 1.00261 -0.05488 -0.04646
309.00000 0.81612 -0.11120 -0.00583
309.10000 0.98548 -0.12281 0.09378
309.20000 0.87497 -0.00972 -0.00428
309.30000 0.92294 0.21359 -0.06654
309.40000 0.90252 0.17903 -0.01321
309.50000 0.93915 0.17098 0.01114
309.60000 0.88174 0.02817 0.03590
309.70000 0.90616 0.01020 -0.06021
309.80000 0.95858 0.07959 -0.01377
309.90000 0.89089 -0.15606 0.03207
310.00000 0.96569 -0.16496 -0.03545
310.10000 0.88823 -0.10867 0.06486
310.20000 0.88866 -0.13429 -0.01336
310.30000 0.90070 -0.16557 -0.00992
310.40000 0.86059 -0.22525 -0.00895
310.50000 0.92387 -0.12013 0.05626
310.60000 0.92172 0.07560 0.00970
310.70000 0.92476 0.14424 0.05160
310.80000 0.93320 0.04887 -0.00198
310.90000 0.85909 -0.20974 -0.03142
311.00000 0.95382 -0.24944 0.00458
311.10000 0.88568 -0.17470 -0.03274
311.20000 0.89847 -0.05127 0.00188
311.30000 0.98243 0.08937 0.06297
311.40000 0.87032 0.06691 -0.04909
311.50000 0.96674 0.12989 0.01641
311.60000 0.85919 0.14468 0.02936
311.70000 0.93522 -0.01374 -0.01612
311.80000 0.96772 -0.08374 0.00058
311.90000 0.91226 -0.09185 -0.01517
312.00000 0.88039 -0.03985 -0.01678
312.10000 0.93418 -0.12429 0.06575
312.20000 0.87468 -0.19412 0.00539
312.30000 0.93035 -0.08655 -0.04479
312.40000 0.94458 0.00121 -0.00659
312.50000 0.91492 -0.04487 0.08442
312.60000 0.95757 -0.17599 -0.03520
312.70000 0.88664 -0.21897 0.02682
312.80000 0.93090 0.02122 -0.02901
312.90000 0.93968 0.25189 0.03150
313.00000 0.93522 0.30445 -0.03983
313.10000 0.96486 0.19911 -0.03332
313.20000 0.98488 0.10565 -0.00833
313.30000 0.88962 -0.06298 0.03943
313.40000 0.93232 -0.08619 0.11064
313.50000 0.96179 -0.08223 -0.07038
313.60000 0.86607 -0.02703 -0.06897
313.70000 0.95650 -0.04761 0.13278
313.80000 0.93335 -0.08687 -0.01164
313.90000 0.91433 -0.08953 -0.02140
314.00000 0.91803 0.00246 0.04117
314.10000 0.92991 0.15497 0.00598
314.20000 0.97607 0.25790 -0.06857
314.30000 0.81789 0.19243 0.00915
314.40000 1.00725 0.26260 0.04022
314.50000 0.83722 0.13888 0.00932
314.60000 0.97471 -0.00541 -0.00461
314.70000 0.94313 -0.20961 -0.01327
314.80000 0.95154 -0.26581 -0.01982
314.90000 0.91955 -0.10599 0.00468
315.00000 0.95323 -0.12631 0.00608
315.10000 0.91727 -0.27703 0.00736
315.20000 0.93304 -0.14320 -0.01256
315.30000 0.97867 0.06941 0.00971
315.40000 0.90042 0.20849 -0.02383
315.50000 0.92483 0.23948 0.04934
315.60000 0.87315 0.31865 0.03297
315.70000 0.92890 0.11359 -0.05266
315.80000 0.90125 0.02537 0.02265
315.90000 0.95869 -0.00306 -0.00799
316.00000 0.86345 -0.08351 0.00062
316.10000 0.98021 -0.26776 0.05127
316.20000 0.91195 -0.21106 -0.05978
316.30000 0.90988 0.02395 -0.01832
316.40000 0.91713 0.06549 0.04685
316.50000 0.93356 0.12163 0.00598
316.60000 0.88533 0.08327 -0.02963
316.70000 0.97323 -0.00828 0.07286
316.80000 0.87914 0.22165 -0.04123
316.90000 0.93361 0.29928 -0.00909
317.00000 0.88988 0.15714 0.01209
317.10000 0.93908 -0.07843 -0.04784
317.20000 0.89135 -0.27977 0.05280
317.30000 0.95450 -0.36705 -0.05853
317.40000 0.95894 -0.04931 0.02810
317.50000 0.92531 0.09223 0.02116
317.60000 0.91458 0.09725 -0.00015
317.70000 0.91481 0.10119 -0.03046
317.80000 0.97285 0.01479 -0.02261
317.90000 0.88310 0.17667 -0.02307
318.00000 0.99297 0.17383 0.02221
318.10000 0.91391 0.05629 -0.01875
318.20000 0.90027 -0.05600 -0.02924
318.30000 0.86510 -0.13988 0.00601
318.40000 0.96631 -0.26859 -0.01642
318.50000 0.95859 -0.21430 0.00068
318.60000 0.83078 -0.02746 0.00575
318.70000 1.02845 0.26029 -0.04937
318.80000 0.87438 0.32800 0.02343
318.90000 0.93808 0.09911 0.01221
319.00000 0.93921 -0.06106 0.03946
319.10000 0.89741 -0.08579 -0.01698
319.20000 0.95178 -0.11119 -0.04123
319.30000 0.88612 -0.06906 0.00591
319.40000 0.89994 0.00494 0.09185
319.50000 0.93337 0.15461 -0.02418
319.60000 0.94021 0.21138 -0.03143
319.70000 0.91454 0.00680 0.02538
319.80000 0.94459 -0.14296 0.04691
319.90000 0.91655 -0.04965 0.00777
320.00000 0.90822 0.03998 -0.01515
320.10000 0.85657 0.07939 0.01815
320.20000 0.95969 -0.02581 -0.04647
320.30000 0.92534 -0.00796 -0.06477
320.40000 0.97899 -0.01613 0.10844
320.50000 0.91139 -0.02717 0.01544
320.60000 0.89916 -0.20456 -0.02891
320.70000 0.95248 -0.14053 0.03897
320.80000 0.92781 -0.00998 -0.02371
320.90000 0.89958 0.00294 -0.02062
321.00000 0.96190 0.09190 0.01288
321.10000 0.91521 0.14312 0.04574
321.20000 0.87999 -0.02059 0.04700
321.30000 0.95483 -0.15830 -0.01926
321.40000 0.95403 -0.08660 0.00357
321.50000 0.90200 -0.04439 0.01504
321.60000 0.93445 -0.03439 0.03463
321.70000 0.94803 0.02567 0.00027
321.80000 0.92458 0.05923 -0.05242
321.90000 0.89477 0.18570 0.02794
322.00000 0.96598 0.12423 -0.02237
322.10000 0.90025 0.09949 -0.00053
322.20000 0.92270 -0.09744 0.04835
322.30000 0.91311 -0.07452 -0.00401
322.40000 0.92207 0.05780 -0.00539
322.50000 0.91718 0.05855 0.03353
322.60000 0.91391 0.05751 0.00108
322.70000 0.90436 -0.00296 -0.01809
322.80000 0.99499 -0.11459 0.01537
322.90000 0.87447 0.06966 -0.00708
323.00000 0.92160 0.29260 0.02864
323.10000 0.93377 0.30378 0.00698
323.20000 0.91028 0.15233 -0.06238
323.30000 0.87050 0.00844 0.03905
323.40000 0.92950 -0.23275 0.01325
323.50000 0.95195 -0.33101 -0.06141
323.60000 0.91135 -0.23900 0.03430
323.70000 1.00223 -0.05504 -0.03097
323.80000 0.87039 -0.04501 -0.00133
323.90000 0.91527 -0.06472 0.03897
324.00000 0.90446 -0.16172 -0.01676
324.10000 0.92915 -0.24796 0.01816
324.20000 0.92998 -0.44524 -0.00947
324.30000 0.95229 -0.51507 -0.00523
324.40000 0.90932 -0.25744 0.02938
324.50000 0.95444 0.06797 -0.01612
324.60000 0.91128 0.11674 -0.01580
324.70000 0.99032 0.07378 0.02120
324.80000 0.90534 0.01936 0.00188
324.90000 0.89618 -0.08326 0.01104
325.00000 0.93664 -0.01430 -0.01068
325.10000 0.89728 0.01858 0.00212
325.20000 0.88675 0.11591 0.00255
325.30000 1.00231 0.01764 0.00429
325.40000 0.87060 0.00820 -0.00181
325.50000 0.95756 0.03402 -0.05232
325.60000 0.89029 -0.10827 0.02912
325.70000 0.97139 -0.06707 0.02234
325.80000 0.89907 0.04780 -0.03723
325.90000 0.94450 0.31935 0.05782
326.00000 0.91014 0.24877 0.00791
326.10000 0.84600 0.12334 0.00134
326.20000 0.93170 0.06956 -0.03248
326.30000 0.95688 -0.30943 -0.03052
326.40000 0.94883 -0.17101 0.06179
326.50000 0.87816 0.16444 -0.00649
326.60000 0.94316 0.40482 0.02859
326.70000 0.89084 0.33028 -0.01847
326.80000 0.94606 0.19134 -0.02298
326.90000 0.89178 0.15552 -0.01173
327.00000 0.92648 0.29351 0.02261
327.10000 0.90633 0.23437 0.03479
327.20000 0.97088 0.19074 0.01389
327.30000 0.92514 0.17903 0.01266
327.40000 0.89806 0.14528 0.00914
327.50000 0.92362 0.10332 -0.01848
327.60000 0.86009 0.05196 0.04625
327.70000 0.98104 0.08089 -0.00842
327.80000 0.90489 0.05292 -0.07259
327.90000 0.95485 -0.04664 0.03889
328.00000 0.94851 0.01556 0.00423
328.10000 0.92895 -0.01619 -0.00062
328.20000 0.89046 -0.04262 0.01831
328.30000 0.91796 0.00654 0.02410
328.40000 0.95320 0.03377 -0.02324
328.50000 0.92826 0.18889 -0.01955
328.60000 1.00830 0.23254 0.06715
328.70000 0.80820 0.35829 0.01214
328.80000 0.95082 0.08422 -0.05093
328.90000 0.94013 -0.32631 0.00928
329.00000 0.87932 -0.45592 0.00261
329.10000 1.02464 -0.40394 0.03613
329.20000 0.80553 -0.24155 -0.01389
329.30000 0.96343 0.08582 -0.02234
329.40000 0.94746 0.30154 0.00085
329.50000 0.85052 0.04954 -0.00621
329.60000 0.89993 -0.20210 -0.04149
329.70000 0.93253 -0.13775 0.03609
329.80000 0.94043 0.03050 -0.01250
329.90000 0.92682 0.19120 0.03602
330.00000 0.97382 0.25928 0.05275
330.10000 0.94401 0.10878 -0.03876
330.20000 0.85432 -0.08311 0.02763
330.30000 0.95879 -0.18705 -0.02653
330.40000 0.92898 -0.23794 0.05840
330.50000 0.84552 -0.14659 -0.00842
330.60000 0.92644 0.00004 -0.05493
330.70000 0.98673 -0.13293 -0.05583
330.80000 0.88453 -0.21844 0.02478
330.90000 0.98423 -0.17641 -0.03148
331.00000 0.82952 -0.13106 0.02545
331.10000 0.96289 -0.05353 -0.01565
331.20000 0.91795 -0.06191 0.00795
331.30000 0.93515 -0.04280 0.00723
331.40000 0.94978 -0.07516 -0.02298
331.50000 0.95548 0.19010 0.00874
331.60000 0.87409 0.41492 0.02974
331.70000 0.96783 0.30740 0.00552
331.80000 0.90219 0.10284 -0.02527
331.90000 0.86307 -0.08989 -0.04481
332.00000 0.95286 -0.23169 0.08191
332.10000 0.91340 -0.31585 -0.01445
332.20000 0.96865 -0.06135 -0.02917
332.30000 0.93174 0.03824 0.04495
332.40000 0.92181 0.11370 0.02401
332.50000 0.92777 0.11249 -0.02836
332.60000 0.90099 0.14454 0.00606
332.70000 0.93501 0.22553 0.05933
332.80000 0.93544 0.12360 -0.02102
332.90000 0.86917 0.12324 -0.02680
333.00000 0.91322 0.13205 0.01998
333.10000 0.90601 -0.01304 -0.01886
333.20000 0.93744 -0.02719 0.00501
333.30000 0.87552 0.00211 0.03713
333.40000 0.97236 0.09242 0.02516
333.50000 0.96697 0.07499 -0.01568
333.60000 0.91798 0.06980 0.01886
333.70000 0.99500 -0.08354 -0.02162
333.80000 0.84748 0.05907 -0.02751
333.90000 0.91837 0.06182 0.09003
334.00000 0.92310 -0.15864 -0.03414
334.10000 0.92519 -0.06869 -0.02721
334.20000 0.89810 0.12896 0.03164
334.30000 0.96756 0.11983 0.02251
334.40000 0.87476 -0.01782 -0.08485
334.50000 0.97009 0.03838 -0.03397
334.60000 0.86618 0.21111 0.06768
334.70000 0.94989 0.25912 0.01931
334.80000 0.94836 0.25599 -0.02552
334.90000 0.91656 0.04725 -0.00488
335.00000 0.93181 -0.07715 -0.04466
335.10000 0.92990 0.00783 -0.02866
335.20000 0.88656 0.14343 0.01861
335.30000 0.96206 0.17818 0.01467
335.40000 0.90446 0.12448 0.04376
335.50000 1.01156 0.11347 -0.02454
335.60000 0.86309 0.08153 0.02851
335.70000 1.00318 -0.16323 -0.00691
335.80000 0.92219 -0.41568 0.00104
335.90000 0.93017 -0.39346 0.06756
336.00000 0.95736 -0.13667 0.06921
336.10000 0.87910 0.06693 -0.01784
336.20000 0.93029 0.23776 -0.00911
336.30000 0.94183 0.28135 -0.02382
336.40000 0.91640 0.10201 -0.00200
336.50000 0.94303 0.03579 -0.03623
336.60000 0.91172 -0.00502 -0.01240
336.70000 0.96883 -0.05517 0.04562
336.80000 0.87087 -0.20143 0.03518
336.90000 0.96479 -0.28422 -0.01649
337.00000 0.84894 -0.12138 0.02810
337.10000 0.97279 0.08431 -0.05089
337.20000 0.83825 0.16216 0.03777
337.30000 1.02749 0.16300 -0.00907
337.40000 0.82615 0.04218 0.00543
337.50000 1.03861 0.01301 0.02406
337.60000 0.87649 0.00763 0.04224
337.70000 0.93711 0.20806 0.00933
337.80000 0.92849 0.19482 -0.01116
337.90000 0.88208 0.00136 -0.05798
338.00000 0.98234 0.07434 0.04352
338.10000 0.87413 -0.04275 0.01306
338.20000 0.91431 0.01705 -0.01920
338.30000 0.91298 0.06919 0.02774
338.40000 0.96157 0.34589 -0.05769
338.50000 0.94137 0.47260 0.01294
338.60000 0.94696 0.37450 0.00451
338.70000 0.91826 0.14214 -0.05161
338.80000 0.85375 -0.07659 0.01195
338.90000 0.99387 -0.17289 -0.02147
339.00000 0.94635 -0.01854 0.00455
339.10000 0.91170 0.09857 -0.00477
339.20000 0.99253 0.09531 0.00721
339.30000 0.89801 -0.02514 0.05150
339.40000 0.92481 -0.09334 0.00792
339.50000 0.95473 -0.19262 -0.00695
339.60000 0.95040 -0.34507 -0.06716
339.70000 0.87110 -0.23829 0.01064
339.80000 0.92052 -0.01101 0.05712
339.90000 0.95126 0.14600 -0.08602
340.00000 0.87982 0.19688 0.00217
340.10000 0.90873 0.16235 0.05674
340.20000 0.95144 0.03645 0.04851
340.30000 0.90423 -0.07764 0.00617
340.40000 0.91507 -0.06774 -0.00939
340.50000 0.90909 0.09059 -0.01807
340.60000 0.90745 0.14201 -0.02297
340.70000 0.95032 -0.05794 -0.06166
340.80000 0.90771 -0.27791 -0.04941
340.90000 0.94054 -0.23123 0.02064
341.00000 0.90394 -0.18491 -0.05899
341.10000 0.91376 -0.11080 0.02784
341.20000 0.98341 0.01241 -0.05197
341.30000 0.91721 -0.04341 0.01390
341.40000 0.95464 -0.07618 -0.00538
341.50000 0.93621 -0.07913 -0.00383
341.60000 0.86107 0.04323 -0.02650
341.70000 0.87593 0.10766 0.01809
341.80000 0.94606 0.02881 0.04235
341.90000 0.90400 0.04153 0.04807
342.00000 0.98540 0.10727 0.06065
342.10000 0.84754 0.15594 -0.02466
342.20000 0.95281 0.25113 -0.05244
342.30000 0.90579 0.18391 -0.00551
342.40000 0.92145 0.07208 0.07992
342.50000 0.93360 -0.01816 -0.04687
342.60000 0.89186 -0.02023 -0.03721
342.70000 0.97311 -0.13149 0.05692
342.80000 0.87976 -0.07368 -0.02315
342.90000 0.94298 0.07885 0.00108
343.00000 0.88240 -0.07515 0.03253
343.10000 0.98775 -0.00789 -0.06766
343.20000 0.91873 -0.05684 -0.04524
343.30000 0.90971 -0.12924 0.09575
343.40000 0.96693 -0.02303 0.04561
343.50000 0.89507 0.09892 -0.08417
343.60000 0.90161 0.21210 0.00902
343.70000 0.93471 0.19419 -0.00386
343.80000 0.92884 0.12609 -0.00608
343.90000 0.97611 -0.07886 -0.00864
344.00000 0.88093 0.03906 0.03970
344.10000 0.96384 -0.02737 -0.04250
344.20000 0.87049 -0.04991 0.05921
344.30000 0.92595 -0.16997 -0.04549
344.40000 0.88819 -0.13264 -0.05497
344.50000 0.88663 -0.10402 0.09960
344.60000 0.94358 -0.23776 -0.00969
344.70000 0.89283 -0.25980 -0.06222
344.80000 0.94413 -0.23789 0.02751
344.90000 0.95247 -0.26106 0.04148
345.00000 0.96181 -0.22517 -0.01217
345.10000 0.95670 0.03619 -0.02148
345.20000 0.88473 -0.14096 -0.02397
345.30000 0.89676 -0.22952 0.01092
345.40000 0.86301 -0.15517 0.00322
345.50000 0.95514 -0.00564 0.03692
345.60000 0.81979 0.13244 -0.04767
345.70000 1.03029 0.14639 0.01741
345.80000 0.90541 0.05362 0.01387
345.90000 0.87048 0.03350 0.01211
346.00000 1.01137 0.09070 -0.04077
346.10000 0.81567 -0.02749 0.03661
346.20000 1.00711 -0.28761 0.04798
346.30000 0.80003 -0.18512 -0.02856
346.40000 0.94184 -0.08194 -0.01267
346.50000 0.99698 -0.04210 0.01965
346.60000 0.87921 0.06157 0.01004
346.70000 1.01256 0.23703 0.03451
346.80000 0.90249 0.16100 0.02018
346.90000 0.90044 0.20997 -0.02922
347.00000 0.88924 0.26083 -0.00955
347.10000 1.01399 0.14296 0.01237
347.20000 0.89852 0.02650 0.00925
347.30000 0.92478 -0.22898 -0.01355
347.40000 0.92385 -0.29422 0.01025
347.50000 0.94795 -0.14263 -0.02922
347.60000 0.88829 0.07678 0.00209
347.70000 0.96437 0.08775 0.02366
347.80000 0.91968 0.01965 0.01307
347.90000 0.94818 -0.04287 -0.04367
348.00000 0.83325 0.08730 0.01584
348.10000 1.01007 0.16639 0.01396
348.20000 0.88837 0.03890 0.01756
348.30000 0.94137 -0.05288 -0.02395
348.40000 0.92230 0.21791 -0.01089
348.50000 0.93949 0.31258 0.00204
348.60000 0.89601 0.24362 -0.00220
348.70000 0.89617 0.23983 -0.00819
348.80000 0.96046 0.13354 0.07897
348.90000 0.84539 -0.04903 -0.04357
349.00000 0.99135 -0.04557 -0.00192
349.10000 0.90947 -0.09033 0.05457
349.20000 0.87908 -0.12135 0.02353
349.30000 0.96622 -0.10479 -0.05074
349.40000 0.90242 -0.19041 -0.02996
349.50000 0.92659 -0.18847 0.04049
349.60000 0.97805 0.04490 -0.01509
349.70000 0.91063 0.02954 -0.05775
349.80000 0.86212 -0.04366 -0.01480
349.90000 0.97031 -0.20081 0.06669
350.00000 0.81862 -0.00575 -0.07892
350.10000 0.99452 0.28304 0.00469
350.20000 0.90280 0.14457 0.00732
350.30000 0.91625 0.14484 0.00238
350.40000 0.91653 0.25615 0.04407
350.50000 0.97727 0.28608 -0.03833
350.60000 0.87941 0.23652 0.02936
350.70000 0.96074 0.23955 -0.04915
350.80000 0.97354 0.20517 0.01885
350.90000 0.87563 -0.05730 -0.01562
351.00000 1.02359 -0.05713 0.02751
351.10000 0.86183 0.06880 0.00727
351.20000 0.95844 -0.02536 -0.01920
351.30000 0.89694 0.02750 0.03117
351.40000 0.90842 0.09856 -0.01407
351.50000 0.95523 0.00518 -0.00569
351.60000 0.83481 -0.33337 -0.06215
351.70000 0.95167 -0.17983 0.02400
351.80000 0.99906 0.12475 -0.01973
351.90000 0.83994 0.21618 -0.00833
352.00000 0.95626 0.06123 0.02047
352.10000 0.89711 -0.03436 -0.00088
352.20000 0.93279 -0.10760 0.01905
352.30000 0.90863 0.07443 -0.01294
352.40000 0.91668 0.03764 -0.02692
352.50000 0.87192 0.10036 0.04559
352.60000 0.99575 0.06672 0.00836
352.70000 0.87133 -0.11768 0.01086
352.80000 0.91175 -0.26106 -0.00620
352.90000 0.93597 -0.25982 -0.02304
353.00000 0.91537 -0.13260 -0.04069
353.10000 0.94687 -0.02015 0.01942
353.20000 0.91514 0.02882 0.02355
353.30000 0.94173 -0.00405 -0.04968
353.40000 0.95524 -0.23548 0.03673
353.50000 0.88953 -0.15333 -0.03071
353.60000 0.91578 -0.09233 0.03949
353.70000 0.88445 -0.07254 0.01237
353.80000 0.99175 -0.01941 -0.02507
353.90000 0.85589 0.07336 -0.02484
354.00000 0.97163 0.09142 0.01389
354.10000 0.93272 0.09534 -0.00778
354.20000 0.88397 0.04041 0.03043
354.30000 0.94659 -0.04798 -0.00190
354.40000 0.85761 -0.09535 0.01492
354.50000 0.93818 -0.03712 0.02130
354.60000 0.95846 0.05200 -0.03797
354.70000 0.83387 0.06438 0.01712
354.80000 0.99840 0.08602 0.02234
354.90000 0.86566 0.04231 0.01357
355.00000 0.92195 -0.07056 0.03973
355.10000 1.00956 -0.23823 -0.04671
355.20000 0.80418 -0.20171 -0.08539
355.30000 0.97890 -0.06231 -0.01807
355.40000 0.92314 0.05647 0.08023
355.50000 0.96582 0.21645 -0.04229
355.60000 0.93005 0.12697 -0.05133
355.70000 0.92301 0.04766 0.02076
355.80000 0.97683 0.14794 0.00362
355.90000 0.85520 0.21921 -0.00983
356.00000 1.00265 0.24543 -0.00469
356.10000 0.85720 0.24546 0.03752
356.20000 0.95854 0.25253 -0.14663
356.30000 0.86123 -0.04720 0.06286
356.40000 0.95927 -0.15333 0.00900
356.50000 0.92126 -0.18783 -0.04695
356.60000 0.88655 0.01308 -0.02114
356.70000 0.96392 0.14533 0.01533
356.80000 0.90546 0.02701 -0.01022
356.90000 0.93404 0.03624 0.04257
357.00000 0.94766 0.10855 -0.01173
357.10000 1.00197 0.07427 -0.06201
357.20000 0.95816 0.04998 0.07017
357.30000 0.89158 -0.06636 -0.00927
357.40000 0.93355 0.03657 -0.04072
357.50000 0.88890 0.18113 0.07282
357.60000 0.97769 0.23519 0.02720
357.70000 0.94898 0.03671 -0.00053
357.80000 0.92436 -0.07830 0.04490
357.90000 0.94266 -0.19468 0.05468
358.00000 0.85483 -0.20917 0.00521
358.10000 0.93832 -0.20446 0.00959
358.20000 0.95808 -0.14662 0.00779
358.30000 0.91894 -0.09805 -0.05458
358.40000 0.94721 -0.06415 0.00393
358.50000 0.85412 0.03078 0.05111
358.60000 0.97967 0.11155 -0.01307
358.70000 0.85244 0.06481 0.02014
358.80000 0.96301 -0.07551 -0.02265
358.90000 0.89090 -0.23812 -0.03641
359.00000 0.89488 -0.05560 0.04279
359.10000 0.98399 0.05782 0.07016
359.20000 0.90287 0.14185 -0.00738
359.30000 0.91834 0.09181 -0.04511
359.40000 0.95672 0.11151 0.01527
359.50000 0.94492 -0.01635 0.00375
359.60000 0.93557 -0.05181 0.01868
359.70000 0.89739 0.01192 0.03949
359.80000 0.90640 0.01161 0.03356
359.90000 0.91267 -0.03935 -0.08015
360.00000 0.93467 -0.05914 0.01833
360.10000 0.92747 -0.09281 0.06528
360.20000 0.89563 -0.03460 -0.02837
360.30000 0.93274 -0.05056 0.03610
360.40000 0.89465 -0.10416 0.04886
360.50000 0.90037 0.03143 -0.04545
360.60000 0.89175 0.13850 0.02607
360.70000 0.92492 0.01739 -0.01842
360.80000 0.95251 0.01770 0.00731
360.90000 0.89007 -0.01988 0.00215
361.00000 0.94630 0.04319 -0.01717
361.10000 0.94569 0.05617 -0.00435
361.20000 0.84312 0.04702 -0.00065
361.30000 0.95531 -0.10797 -0.00800
361.40000 0.89473 -0.11289 -0.00178
361.50000 0.91823 -0.06469 0.05408
361.60000 0.91991 0.13210 0.00385
361.70000 0.92106 0.17006 -0.04738
361.80000 0.86373 0.03520 -0.02773
361.90000 0.96076 0.02596 0.04605
362.00000 0.89684 0.12121 -0.08196
362.10000 1.00690 0.12983 -0.03998
362.20000 0.90246 -0.02526 0.12082
362.30000 0.92700 -0.33215 0.00319
362.40000 0.89739 -0.37794 -0.08282
362.50000 0.93397 -0.23713 -0.03349
362.60000 0.87898 -0.15936 0.03072
362.70000 1.00156 0.03140 -0.06528
362.80000 0.90664 0.09665 -0.00983
362.90000 0.86365 0.02386 0.00173
363.00000 0.98608 -0.04968 0.04522
363.10000 0.86609 -0.10103 -0.03870
363.20000 0.96452 -0.27450 0.00068
363.30000 0.90910 -0.10515 -0.01667
363.40000 0.91643 0.10115 0.00569
363.50000 0.90037 0.13915 -0.00029
363.60000 0.92382 -0.09495 -0.00770
363.70000 0.90901 -0.27229 0.01369
363.80000 0.91586 -0.14296 -0.01515
363.90000 0.95585 -0.00624 0.05348
364.00000 0.87885 0.04320 -0.00193
364.10000 0.92484 0.19407 -0.01400
364.20000 0.90468 0.09159 0.00686
364.30000 0.85328 0.04578 0.00255
364.40000 1.02450 0.28457 0.02850
364.50000 0.81671 0.25508 0.02283
364.60000 0.96178 0.08976 -0.01185
364.70000 0.89158 0.12521 -0.08658
364.80000 0.94381 0.19391 -0.00299
364.90000 0.92432 0.13052 0.03331
365.00000 0.89396 0.24182 -0.03448
365.10000 0.96589 0.09728 -0.00288
365.20000 0.87981 0.08347 0.04362
365.30000 0.96234 0.09955 -0.03232
365.40000 0.87557 0.10260 -0.01661
365.50000 0.89318 0.18507 -0.03535
365.60000 0.93912 0.22611 0.04044
365.70000 0.94759 0.08485 0.02004
365.80000 0.90675 0.21766 0.00400
365.90000 0.91438 0.20118 -0.01598
366.00000 0.95200 -0.02819 -0.01305
366.10000 0.89073 -0.15722 0.00490
366.20000 0.85933 -0.00141 0.00467
366.30000 0.94720 0.19645 0.03139
366.40000 0.88169 0.25701 0.01655
366.50000 0.94096 0.20492 -0.01951
366.60000 0.88416 0.06912 -0.01104
366.70000 0.93657 -0.07975 0.05890
366.80000 0.93259 -0.07620 -0.02571
366.90000 0.93609 0.09196 -0.00434
367.00000 0.88973 0.12982 -0.00784
367.10000 0.91501 0.11563 -0.04535
367.20000 0.96687 -0.08065 0.00496
367.30000 0.87606 -0.03165 -0.00691
367.40000 0.91656 0.20443 0.03318
367.50000 0.94583 0.13146 -0.09115
367.60000 0.95535 0.13879 0.01893
367.70000 0.94795 0.18784 0.03847
367.80000 0.86647 0.07346 0.02499
367.90000 0.94760 0.15781 0.03553
368.00000 0.96752 0.07763 -0.00382
368.10000 0.94819 -0.05868 -0.02455
368.20000 0.94082 -0.10088 0.04966
368.30000 0.84400 -0.08827 -0.00119
368.40000 0.93841 -0.13426 -0.00462
368.50000 0.91536 -0.18226 0.01935
368.60000 0.87404 -0.09090 -0.04231
368.70000 1.00424 0.17796 0.00714
368.80000 0.86467 0.26032 0.00572
368.90000 0.96157 0.21903 0.01313
369.00000 0.91883 0.12130 0.01391
369.10000 0.93920 0.06152 -0.02049
369.20000 0.90601 0.04964 0.00767
369.30000 0.92158 0.04608 0.04344
369.40000 0.90384 -0.00519 -0.03971
369.50000 0.93797 -0.09109 -0.10256
369.60000 0.92787 -0.18230 0.01443
369.70000 0.90350 -0.18134 0.10050
369.80000 0.96226 -0.13365 -0.09609
369.90000 0.91423 -0.08415 -0.04744
370.00000 0.89102 -0.11893 0.04565
370.10000 0.91346 -0.12698 0.02030
370.20000 0.92655 -0.17069 -0.02644
370.30000 0.93402 -0.08589 0.04987
370.40000 0.92542 0.04131 -0.02683
370.50000 0.92369 0.19882 -0.03445
370.60000 0.94050 0.10625 0.00822
370.70000 0.96182 0.06712 0.03760
370.80000 0.90674 -0.23403 -0.01315
370.90000 0.90570 -0.26759 0.02051
371.00000 0.91135 -0.20135 0.00490
371.10000 0.95785 0.00092 0.01258
371.20000 0.86345 0.18096 -0.06430
371.30000 0.96223 -0.03918 -0.00769
371.40000 0.87330 -0.23133 0.01255
371.50000 0.98070 -0.18236 0.02691
371.60000 0.88366 -0.03127 0.01181
371.70000 0.96577 0.02660 -0.01499
371.80000 0.90392 0.05586 -0.01085
371.90000 0.93046 0.02651 -0.02466
372.00000 0.97384 -0.06061 0.01429
372.10000 0.85632 -0.07790 0.00551
372.20000 0.98574 0.08775 -0.03166
372.30000 0.91414 0.34905 -0.05897
372.40000 1.00056 0.30078 0.04790
372.50000 0.82277 0.04457 0.03545
372.60000 0.99624 -0.18249 -0.00839
372.70000 0.82518 -0.26098 0.05180
372.80000 0.95940 -0.21968 -0.05129
372.90000 0.87364 -0.27723 -0.04164
373.00000 0.91928 -0.13461 0.07665
373.10000 0.95966 -0.11202 -0.03911
373.20000 0.84658 0.07961 0.01701
373.30000 1.00224 0.04524 0.04794
373.40000 0.88565 -0.10520 0.01794
373.50000 0.92026 0.12153 -0.02964
373.60000 0.89021 0.18774 -0.00622
373.70000 0.94548 0.10006 0.04021
373.80000 0.93786 -0.00890 -0.02295
373.90000 0.91514 0.10815 -0.04431
374.00000 0.96372 0.11161 0.00806
374.10000 0.89006 -0.07015 0.02724
374.20000 0.95815 -0.07940 -0.03575
374.30000 0.91362 -0.09750 0.00981
374.40000 0.90511 -0.07902 -0.02122
374.50000 0.91423 0.00711 0.03555
374.60000 0.85204 0.04512 -0.01361
374.70000 1.07437 -0.12196 0.00057
374.80000 0.87904 -0.14577 -0.00496
374.90000 0.88635 0.13728 0.02934
375.00000 0.92987 0.30695 -0.05213
375.10000 0.89090 0.32087 -0.01727
375.20000 0.93886 0.23867 0.04584
375.30000 0.92914 0.05268 0.05707
375.40000 1.01688 -0.30849 -0.07254
375.50000 0.89699 -0.24284 0.02870
375.60000 0.92940 -0.04028 0.03406
375.70000 0.90662 0.05792 -0.04268
375.80000 0.94529 0.05445 -0.02684
375.90000 0.86797 -0.01182 0.00272
376.00000 0.98451 -0.11290 0.01477
376.10000 0.90639 -0.08867 -0.04079
376.20000 0.95282 -0.16379 0.05198
376.30000 0.87523 -0.07463 -0.07308
376.40000 0.94965 -0.08603 0.03444
376.50000 0.89137 -0.05375 0.06525
376.60000 0.92984 0.03906 -0.04946
376.70000 0.99227 0.18849 0.02499
376.80000 0.90883 0.11793 -0.03021
376.90000 0.96887 0.03014 -0.00168
377.00000 0.93623 0.05466 -0.00758
377.10000 0.92541 0.19173 -0.01653
377.20000 0.90934 0.11144 -0.03174
377.30000 0.91274 -0.03623 0.04317
377.40000 0.94269 0.07438 -0.06542
377.50000 0.93524 0.08013 0.03421
377.60000 0.90952 0.11714 -0.03921
377.70000 0.94860 0.07484 -0.03043
377.80000 0.91704 -0.02803 -0.03774
377.90000 0.91436 -0.15905 -0.03393
378.00000 1.02896 -0.34991 0.01059
378.10000 0.86674 -0.27997 -0.02081
378.20000 0.98443 0.06148 -0.00125
378.30000 0.89431 0.17140 -0.04097
378.40000 0.93480 0.22830 0.01320
378.50000 1.00120 0.17336 0.04166
378.60000 0.85716 -0.18315 0.00416
378.70000 0.95334 -0.27776 0.02585
378.80000 0.93153 -0.20988 -0.01325
378.90000 0.90397 -0.09467 -0.00193
379.00000 0.98972 -0.15166 -0.01093
379.10000 0.80853 0.05752 -0.00034
379.20000 1.01202 0.25335 -0.00436
379.30000 0.88103 0.12587 -0.02301
379.40000 0.95816 0.07177 0.05188
379.50000 0.91984 0.01057 -0.01375
379.60000 0.89812 -0.16420 0.01428
379.70000 0.96002 -0.30037 0.00676
379.80000 0.90518 -0.22900 -0.02869
379.90000 0.94976 0.00794 0.00391
380.00000 0.92987 0.12577 -0.01116
380.10000 0.92151 0.08236 0.00951
380.20000 0.90418 0.10086 0.04969
380.30000 0.91464 0.19156 -0.01895
380.40000 0.93309 0.29996 -0.07460
380.50000 0.93605 0.29128 -0.01734
380.60000 0.93157 0.15520 0.06269
380.70000 0.92022 0.02493 0.00828
380.80000 0.92307 0.16998 0.00151
380.90000 0.89263 0.29993 -0.03822
381.00000 0.90252 0.11730 -0.01365
381.10000 0.91472 -0.13486 0.04601
381.20000 0.95979 -0.20352 0.03366
381.30000 0.89572 -0.03326 -0.01051
381.40000 0.91511 0.13941 0.03639
381.50000 0.87972 0.21124 -0.01350
381.60000 0.93831 0.20015 0.03787
381.70000 0.95181 -0.03105 0.05363
381.80000 0.86439 0.01858 -0.01373
381.90000 0.97420 0.16096 -0.03453
382.00000 0.83141 0.26266 -0.00365
382.10000 1.01204 -0.04166 0.02309
382.20000 0.90495 -0.13277 0.05443
382.30000 0.88862 -0.09074 -0.00492
382.40000 0.95844 0.02544 0.03491
382.50000 0.86327 0.03164 -0.03080
382.60000 0.92528 -0.16207 -0.01463
382.70000 0.95663 -0.18488 0.00953
382.80000 0.96241 -0.00855 0.01819
382.90000 0.81982 -0.04111 0.02384
383.00000 0.97381 -0.13468 -0.00118
383.10000 0.86737 -0.21411 -0.03412
383.20000 0.99851 0.02685 0.04817
383.30000 0.87067 0.27979 -0.02564
383.40000 1.00630 0.22029 -0.00801
383.50000 0.93208 0.11735 0.01270
383.60000 0.85224 0.00819 -0.08986
383.70000 1.02824 0.07177 -0.02170
383.80000 0.84980 0.21266 0.02208
383.90000 0.92980 0.33226 -0.04639
384.00000 0.87242 0.27280 0.05276
384.10000 0.95307 0.07523 -0.01546
384.20000 0.86867 0.12313 0.00127
384.30000 0.88925 0.00407 -0.01857
384.40000 0.96406 -0.22019 -0.03495
384.50000 0.93778 -0.29821 0.01489
384.60000 0.92435 -0.16593 0.03360
384.70000 0.93674 -0.17783 -0.04050
384.80000 0.92524 -0.09864 0.01021
384.90000 0.95457 -0.04061 -0.00405
385.00000 0.90303 0.16415 0.00574
385.10000 0.95401 0.12532 0.02053
385.20000 0.93925 0.05713 -0.06227
385.30000 0.90431 -0.27598 0.00510
385.40000 0.98126 -0.07739 0.09295
385.50000 0.86998 0.03074 -0.01667
385.60000 0.94810 0.07037 -0.05781
385.70000 0.88791 -0.01947 0.02377
385.80000 0.95943 -0.07172 0.03571
385.90000 0.89131 0.16277 -0.10425
386.00000 0.93461 0.24942 -0.00413
386.10000 0.91153 0.06681 0.02506
386.20000 0.97871 0.10230 -0.02146
386.30000 0.91605 0.13047 -0.02870
386.40000 0.96290 0.13588 0.00593
386.50000 0.89457 0.04760 -0.05672
386.60000 0.95272 -0.08772 -0.07580
386.70000 0.91362 -0.16640 -0.01667
386.80000 0.88263 -0.22386 0.01334
386.90000 0.99223 -0.08210 -0.02511
387.00000 0.84869 0.02643 -0.03554
387.10000 0.90856 0.04596 0.00300
387.20000 0.89928 0.09025 0.00511
387.30000 0.99225 0.05929 0.03020
387.40000 0.91921 0.10635 -0.00303
387.50000 0.98160 0.09058 0.00792
387.60000 0.85212 -0.02461 0.01908
387.70000 0.97834 -0.16811 -0.00218
387.80000 0.85908 -0.31425 -0.04205
387.90000 0.96774 -0.19273 0.04840
388.00000 0.86793 -0.10754 0.00960
388.10000 0.90731 0.04946 0.01543
388.20000 0.95546 0.04870 0.06734
388.30000 0.92368 0.01351 -0.02980
388.40000 0.87666 0.03290 0.00173
388.50000 0.94786 0.11420 0.03861
388.60000 0.89969 0.06418 0.00159
388.70000 0.97611 0.06322 0.00253
388.80000 0.84742 -0.05610 -0.04246
388.90000 0.95547 -0.07843 0.03297
389.00000 0.95320 -0.32796 0.03715
389.10000 0.92149 -0.26462 -0.06188
389.20000 0.94835 -0.03266 0.01813
389.30000 0.85845 0.19248 0.01611
389.40000 0.99190 0.25581 0.04225
389.50000 0.96811 0.04696 -0.02221
389.60000 0.93820 0.00107 0.01842
389.70000 0.87513 0.09033 0.02286
389.80000 0.90872 -0.05044 0.01505
389.90000 0.97580 -0.08096 -0.04122
390.00000 0.86774 -0.01671 0.03423
390.10000 0.97881 0.14421 0.06889
390.20000 0.92486 0.02534 0.00395
390.30000 0.94121 -0.08030 -0.05206
390.40000 0.88051 -0.14011 -0.02374
390.50000 0.96667 -0.04212 0.01818
390.60000 0.89363 0.09335 -0.04189
390.70000 0.92276 0.19035 0.02608
390.80000 0.92739 0.20143 -0.01099
390.90000 0.93924 0.05034 0.05222
391.00000 0.95123 0.01726 -0.01094
391.10000 0.92130 -0.02121 -0.00987
391.20000 0.86978 -0.10059 0.08083
391.30000 0.95712 -0.10285 -0.05879
391.40000 0.90613 -0.12048 -0.02426
391.50000 0.94465 -0.20086 0.07120
391.60000 0.95427 -0.12399 -0.01911
391.70000 0.90657 -0.05202 -0.00965
391.80000 0.95233 -0.24578 -0.01329
391.90000 0.96830 -0.18397 0.00043
392.00000 0.87288 0.12000 0.01078
392.10000 0.97089 0.14414 0.02603
392.20000 0.87268 0.03368 0.01875
392.30000 0.95771 -0.12297 -0.06180
392.40000 0.91365 -0.19677 -0.03452
392.50000 0.95333 -0.00303 0.06908
392.60000 0.87165 0.19761 -0.03120
392.70000 0.95768 0.12414 -0.03090
392.80000 0.92420 0.05313 0.08606
392.90000 0.95777 -0.02295 -0.01479
393.00000 0.95936 -0.06682 -0.04693
393.10000 0.91726 -0.23257 0.03823
393.20000 0.94464 -0.23637 -0.01290
393.30000 0.92006 -0.04873 -0.01933
393.40000 0.96210 0.11521 -0.05244
393.50000 0.85189 0.15405 -0.01971
393.60000 0.93548 0.08496 -0.02946
393.70000 0.99337 0.09355 0.02049
393.80000 0.91853 -0.00050 0.00011
393.90000 0.95655 -0.26271 -0.02295
394.00000 0.88417 -0.38160 0.02889
394.10000 0.95106 -0.26046 -0.05078
394.20000 0.94824 0.04863 -0.01873
394.30000 0.85039 0.21775 -0.03806
394.40000 0.97597 0.19440 0.00045
394.50000 0.90518 0.15756 0.03941
394.60000 0.86118 0.17229 -0.03218
394.70000 0.98688 0.16468 0.04744
394.80000 0.84685 0.06571 -0.06572
394.90000 1.00283 -0.05561 0.00183
395.00000 0.81314 -0.27089 0.03854
395.10000 0.99204 -0.19630 0.00770
395.20000 0.87524 -0.08453 -0.03656
395.30000 0.95734 0.01980 -0.02878
395.40000 0.94203 -0.05742 -0.03591
395.50000 0.89901 0.01404 -0.02340
395.60000 1.02201 -0.04742 0.04055
395.70000 0.87592 -0.09145 0.02293
395.80000 0.96438 -0.16949 -0.04258
395.90000 0.89523 -0.13144 0.03300
396.00000 0.87812 0.05646 -0.02301
396.10000 0.91059 0.10223 -0.00540
396.20000 0.96700 0.04314 0.01653
396.30000 0.90445 -0.06149 -0.00721
396.40000 0.94602 -0.03199 -0.02951
396.50000 0.89898 0.27632 -0.00191
396.60000 0.89027 0.30506 0.01131
396.70000 0.98004 0.06307 -0.11136
396.80000 0.89090 -0.05648 0.03499
396.90000 0.95423 0.14103 0.01768
397.00000 0.92500 0.24940 -0.03228
397.10000 0.93364 -0.00352 0.02177
397.20000 0.99200 -0.29226 -0.00996
397.30000 0.83863 -0.37484 -0.00955
397.40000 0.99296 -0.14063 -0.03723
397.50000 0.91631 0.12072 0.03749
397.60000 0.92861 0.05595 -0.01426
397.70000 0.85784 -0.11455 -0.00620
397.80000 0.91475 -0.16123 -0.02176
397.90000 0.93477 -0.21510 -0.02060
398.00000 0.91351 -0.12331 -0.02667
398.10000 0.93150 0.05885 0.05408
398.20000 0.92992 0.12699 -0.00216
398.30000 0.95623 0.09010 -0.00981
398.40000 0.87106 -0.02757 0.01971
398.50000 0.97515 -0.09383 -0.04811
398.60000 0.97616 -0.06284 0.00615
398.70000 0.88461 -0.02761 -0.01085
398.80000 0.93758 0.14849 -0.00126
398.90000 0.84910 0.20331 -0.01199
399.00000 0.95194 0.12477 0.02187
399.10000 0.90396 0.03318 0.00891
399.20000 0.93768 -0.05425 -0.00658
399.30000 0.91836 -0.05109 0.03007
399.40000 0.92646 -0.06151 0.04505
399.50000 0.90717 -0.16789 0.02544
399.60000 0.95871 -0.32592 -0.00558
399.70000 0.85352 -0.17834 -0.06865
399.80000 1.00875 -0.10083 0.00699
399.90000 0.90488 0.00472 0.07305
400.00000 0.91362 0.33813 -0.08680
400.10000 0.96026 0.24790 0.01610
400.20000 0.92914 0.11718 0.02380
400.30000 0.96354 -0.04055 0.00259
400.40000 0.93712 0.08357 -0.01563
400.50000 0.92672 0.07772 -0.00806
400.60000 0.99194 -0.02137 0.01808
400.70000 0.91417 -0.20126 -0.03409
400.80000 0.99323 -0.15394 -0.02515
400.90000 0.86720 -0.00446 0.04853
401.00000 0.95930 0.03420 -0.04776
401.10000 0.92084 0.01073 -0.01446
401.20000 0.98528 0.13899 0.01570
401.30000 0.90398 0.03170 -0.00646
401.40000 0.93443 -0.07583 0.04037
401.50000 0.89907 -0.08311 0.00623
401.60000 0.86283 -0.07013 -0.01158
401.70000 0.96933 0.05072 0.03146
401.80000 0.87979 -0.03943 0.02105
401.90000 0.99740 -0.04016 -0.04313
402.00000 0.86492 0.18664 0.01980
402.10000 1.00411 0.26925 0.00449
402.20000 0.83926 0.27460 0.00585
402.30000 0.91396 0.11015 0.01976
402.40000 1.00154 0.06991 -0.05558
402.50000 0.77738 0.06965 0.02209
402.60000 0.98881 0.10847 -0.02885
402.70000 0.89752 0.20443 0.05168
402.80000 0.90608 0.09206 -0.00628
402.90000 0.88719 0.04585 -0.12505
403.00000 0.87443 -0.02144 0.00841
403.10000 0.98836 0.03789 0.01473
403.20000 0.88884 -0.03262 0.01581
403.30000 1.00105 -0.16541 -0.03855
403.40000 0.89290 0.00123 0.00413
403.50000 0.89936 0.29633 0.04355
403.60000 0.90316 0.20653 -0.09196
403.70000 0.91780 -0.00841 0.01878
403.80000 1.01646 -0.27316 0.01706
403.90000 0.92018 -0.33315 0.00738
404.00000 0.89412 -0.34972 0.01991
404.10000 0.98237 -0.03629 0.01528
404.20000 0.91635 -0.05552 -0.01452
404.30000 0.89156 0.02129 -0.02538
404.40000 1.01814 0.06306 0.00722
404.50000 0.79772 0.08028 -0.04284
404.60000 0.96725 0.05069 -0.06040
404.70000 0.86828 0.01539 -0.01864
404.80000 0.92143 -0.05503 0.02107
404.90000 0.96736 -0.32596 -0.02272
405.00000 0.88607 -0.31924 -0.02305
405.10000 0.91898 -0.23326 -0.01668
405.20000 0.91232 -0.15859 -0.00705
405.30000 0.89576 -0.19812 -0.03218
405.40000 0.96864 -0.00186 0.04915
405.50000 0.86454 0.06048 -0.04306
405.60000 0.94177 -0.20471 0.01534
405.70000 0.92248 -0.18094 -0.03650
405.80000 0.88561 0.03078 -0.02937
405.90000 0.93228 0.13904 0.04358
406.00000 0.88972 0.00465 -0.01894
406.10000 0.90889 -0.21486 0.04890
406.20000 0.92303 -0.19955 -0.00717
406.30000 0.85965 -0.11731 0.00791
406.40000 0.97132 -0.00253 -0.01304
406.50000 0.89422 -0.11136 0.08415
406.60000 0.94051 -0.19629 -0.08147
406.70000 0.95054 -0.14836 -0.00059
406.80000 0.90667 -0.05816 0.04382
406.90000 0.87659 0.13112 -0.01196
407.00000 0.92728 0.16769 -0.05482
407.10000 0.91779 -0.00845 -0.06937
407.20000 0.91837 -0.06180 -0.00411
407.30000 0.91302 0.12682 0.00661
407.40000 0.90535 0.07571 0.00633
407.50000 0.95678 -0.00112 0.01356
407.60000 0.89214 -0.14987 -0.01050
407.70000 0.87993 0.24268 0.02687
407.80000 0.99273 0.51075 -0.01471
407.90000 0.89922 0.50483 0.00204
408.00000 0.95165 0.23010 0.02325
408.10000 0.85217 0.00942 -0.00086
408.20000 0.96380 -0.14919 0.00162
408.30000 0.93018 -0.13296 0.01073
408.40000 0.91979 -0.06340 0.02240
408.50000 0.91460 -0.14192 -0.01187
408.60000 0.97018 -0.12831 0.02836
408.70000 0.93297 0.04439 -0.01916
408.80000 0.89530 0.21197 -0.02497
408.90000 0.92823 0.08674 -0.00258
409.00000 0.91511 0.04822 -0.04150
409.10000 0.92686 -0.00017 -0.03705
409.20000 0.97928 -0.10783 0.05372
409.30000 0.85520 -0.18364 -0.06192
409.40000 0.96209 -0.03316 -0.02931
409.50000 0.92450 -0.04842 0.05768
409.60000 0.95424 -0.10484 0.01004
409.70000 0.81912 0.15966 -0.06445
409.80000 1.01065 0.27360 0.00753
409.90000 0.90786 0.03886 0.05793
410.00000 0.92627 -0.05676 0.02289
410.10000 0.98308 0.05107 -0.01874
410.20000 0.85211 0.16316 0.03033
410.30000 0.92092 -0.06099 -0.07110
410.40000 0.86906 -0.16057 0.01775
410.50000 0.94713 -0.04491 0.03858
410.60000 0.97528 0.00727 -0.01335
410.70000 0.90234 -0.01944 -0.04379
410.80000 0.93609 -0.12770 0.00988
410.90000 0.93310 -0.10764 0.08017
411.00000 0.87790 -0.02094 -0.07582
411.10000 0.96076 0.02012 -0.00697
411.20000 0.91259 -0.17812 0.05448
411.30000 0.91260 -0.31407 -0.05931
411.40000 0.90723 -0.11328 -0.00673
411.50000 0.96906 0.20903 -0.04404
411.60000 0.85076 0.27692 -0.02208
411.70000 0.92598 0.07856 -0.00725
411.80000 0.94557 0.03301 -0.08446
411.90000 0.92750 -0.00274 -0.03288
412.00000 0.96842 -0.10304 -0.00675
412.10000 0.91249 -0.20950 -0.05391
412.20000 0.99649 -0.18778 0.02820
412.30000 0.86787 0.05732 -0.05114
412.40000 1.00572 0.14182 0.04777
412.50000 0.91401 0.07904 -0.04941
412.60000 0.88986 0.10158 -0.03073
412.70000 0.96936 0.23910 0.07627
412.80000 0.88161 0.25906 -0.00188
412.90000 0.86583 -0.20144 -0.00135
413.00000 0.98840 -0.24145 -0.05091
413.10000 0.94664 -0.18989 0.03596
413.20000 0.96764 -0.30344 -0.01900
413.30000 0.89570 -0.25284 0.04466
413.40000 0.96195 -0.02115 -0.01507
413.50000 0.86448 -0.08119 -0.02369
413.60000 0.96068 -0.08014 0.00531
413.70000 0.92191 -0.08910 0.04041
413.80000 0.93344 -0.09849 -0.00480
413.90000 0.88400 -0.09065 0.00178
414.00000 0.91835 -0.07698 0.01672
414.10000 0.96000 0.03337 0.00063
414.20000 0.96418 0.19590 0.03969
414.30000 0.91503 0.32832 0.01447
414.40000 0.94452 0.21935 -0.05649
414.50000 0.95532 -0.00178 -0.01284
414.60000 0.82527 -0.00026 0.00603
414.70000 1.03294 0.08138 0.05078
414.80000 0.82767 0.20108 -0.00434
414.90000 1.08517 0.15359 -0.08153
415.00000 0.87226 0.09806 0.02158
415.10000 0.89808 0.03096 0.03980
415.20000 0.99440 0.06239 -0.00827
415.30000 0.83181 0.08044 -0.03335
415.40000 0.96958 0.17395 0.03453
415.50000 0.93445 0.19496 -0.00859
415.60000 0.93667 -0.07340 -0.00356
415.70000 0.90373 -0.19583 -0.01720
415.80000 0.90757 -0.31354 0.02749
415.90000 0.91517 -0.35334 -0.01426
416.00000 0.90218 -0.22526 0.02258
416.10000 0.93166 -0.06601 -0.04903
416.20000 0.88235 -0.11379 0.10141
416.30000 0.90782 0.13631 -0.05134
416.40000 0.92072 -0.03167 0.01307
416.50000 0.92008 0.04549 -0.00095
416.60000 0.93036 -0.08274 -0.01613
416.70000 0.90843 -0.26884 -0.00204
416.80000 0.92200 -0.12752 -0.03486
416.90000 0.96120 0.22275 -0.00888
417.00000 0.92738 0.51056 0.06201
417.10000 0.93016 0.34169 0.03377
417.20000 0.86489 0.07762 -0.04609
417.30000 0.96442 -0.15718 -0.04079
417.40000 0.89693 -0.29965 0.10732
417.50000 0.95676 -0.27540 -0.01822
417.60000 0.90852 -0.19337 -0.03136
417.70000 0.86839 -0.12757 -0.00529
417.80000 0.93219 -0.08626 -0.00507
417.90000 0.91961 -0.09518 0.01082
418.00000 0.93963 -0.09300 -0.01862
418.10000 0.95086 0.01649 -0.02280
418.20000 0.84836 -0.10424 -0.01255
418.30000 0.98308 -0.22531 0.06945
418.40000 0.94194 -0.20285 -0.01829
418.50000 0.88966 -0.01641 -0.01714
418.60000 0.92139 0.07376 0.00831
418.70000 0.91066 -0.14194 0.04589
418.80000 0.91051 -0.32291 -0.06704
418.90000 0.96546 -0.30440 -0.05578
419.00000 0.95320 -0.14357 0.03153
419.10000 0.93392 0.04496 0.00013
419.20000 0.88145 0.14166 0.00565
419.30000 0.92418 -0.05805 -0.00440
419.40000 0.98979 -0.18531 0.00277
419.50000 0.83545 0.05002 -0.01724
419.60000 1.05345 0.21640 -0.01935
419.70000 0.85586 0.24474 0.07372
419.80000 0.88531 0.11515 0.03431
419.90000 0.96995 0.09251 -0.10452
420.00000 0.90636 0.15398 0.03019
420.10000 0.98376 0.10344 0.03524
420.20000 0.85002 0.11329 -0.00294
420.30000 1.01077 0.07804 0.01340
420.40000 0.96420 -0.09933 0.03472
420.50000 0.92912 -0.13906 0.04112
420.60000 0.87489 -0.08426 0.02044
420.70000 0.93335 0.10384 0.02992
420.80000 0.89240 0.08140 -0.06356
420.90000 0.99466 0.04645 0.04444
421.00000 0.84432 0.13267 0.01961
421.10000 1.02189 0.06261 -0.03070
421.20000 0.82132 -0.10725 -0.07403
421.30000 0.89710 -0.13153 0.03452
421.40000 0.92727 -0.04206 -0.01007
421.50000 0.89313 0.07203 0.03822
421.60000 0.95898 0.09681 0.05030
421.70000 0.90105 -0.11087 -0.06385
421.80000 0.99328 0.09983 0.06940
421.90000 0.96388 0.13594 0.02452
422.00000 0.91349 0.10121 -0.03370
422.10000 0.97031 -0.06882 0.00078
422.20000 0.94760 -0.01090 -0.01091
422.30000 0.94928 -0.01245 -0.02663
422.40000 0.84816 -0.02718 0.04004
422.50000 0.85774 -0.08996 -0.03238
422.60000 0.95854 -0.08149 -0.00170
422.70000 0.88876 0.02799 -0.04835
422.80000 0.93357 -0.15887 0.05326
422.90000 0.92010 -0.17672 0.05075
423.00000 0.93190 -0.16581 -0.02752
423.10000 0.88744 0.02787 -0.02025
423.20000 0.94561 0.12393 0.06729
423.30000 0.97447 0.12662 0.02990
423.40000 0.90310 -0.09057 -0.05023
423.50000 1.00536 -0.11498 0.06512
423.60000 0.80981 0.01391 -0.04489
423.70000 0.95164 0.09568 -0.03367
423.80000 0.93242 0.26250 0.04787
423.90000 0.95878 0.24650 0.02508
424.00000 0.86085 0.20725 -0.04104
424.10000 0.96475 0.15860 -0.00658
424.20000 0.91703 0.07368 -0.02078
424.30000 0.89865 -0.15489 0.00609
424.40000 0.95680 -0.16640 -0.02696
424.50000 0.88016 -0.04924 -0.00783
424.60000 0.97848 0.14754 0.04566
424.70000 0.87019 0.09131 -0.05199
424.80000 0.96465 -0.06130 0.01420
424.90000 0.86401 -0.03280 0.02680
425.00000 0.95278 0.11045 0.00043
425.10000 0.93910 0.06085 -0.04695
425.20000 0.94132 -0.12752 -0.01411
425.30000 0.91664 -0.27305 0.05650
425.40000 0.93877 -0.23387 0.00482
425.50000 0.92909 -0.07937 0.00933
425.60000 0.86042 0.09487 0.01282
425.70000 0.98865 0.15946 -0.00701
425.80000 0.83576 0.07494 -0.03986
425.90000 0.96867 -0.15131 -0.00898
426.00000 0.92119 -0.22302 0.00778
426.10000 0.98013 -0.30055 0.02328
426.20000 0.86568 -0.09386 -0.04446
426.30000 0.90710 0.23959 0.03600
426.40000 0.95279 0.43088 0.02986
426.50000 0.94952 0.24150 -0.05079
426.60000 0.89950 -0.32923 -0.06925
426.70000 0.97771 -0.48580 -0.03400
426.80000 0.90533 -0.26937 0.07207
426.90000 0.89874 -0.06356 0.06168
427.00000 0.97850 -0.02772 -0.04701
427.10000 0.86356 0.03291 -0.00995
427.20000 0.96526 0.00303 0.01331
427.30000 0.94653 -0.36776 -0.00684
427.40000 0.88508 -0.19300 0.03006
427.50000 0.97105 0.09474 0.02313
427.60000 0.83192 0.25282 -0.03342
427.70000 0.97208 0.04378 0.06658
427.80000 0.91315 -0.01625 -0.00882
427.90000 0.90290 0.07626 -0.02380
428.00000 0.89631 -0.01595 -0.01867
428.10000 0.97939 -0.10372 0.01191
428.20000 0.92778 -0.17897 -0.04428
428.30000 0.97016 -0.04656 -0.03176
428.40000 0.92859 0.18645 0.06502
428.50000 0.93147 0.24552 -0.03796
428.60000 0.93546 0.19351 -0.01971
428.70000 0.90296 0.07713 -0.01765
428.80000 0.98748 -0.10707 0.02192
428.90000 0.88559 -0.04250 -0.01456
429.00000 1.02838 -0.07770 0.01604
429.10000 0.93831 -0.36374 0.04062
429.20000 0.92273 -0.34099 0.03855
429.30000 0.95427 -0.08630 -0.01775
429.40000 0.94604 0.09640 -0.01223
429.50000 0.91609 -0.04283 0.00546
429.60000 0.97156 -0.15225 0.04105
429.70000 0.90419 -0.24670 -0.03928
429.80000 0.93579 -0.12211 -0.07758
429.90000 0.83813 0.05835 0.04353
430.00000 0.95209 0.12270 0.01936
430.10000 0.91599 0.23055 -0.02555
430.20000 0.88709 0.26110 0.03023
430.30000 0.90327 0.10874 -0.01785
430.40000 0.94792 0.11710 0.00718
430.50000 0.88638 0.02119 0.01332
430.60000 0.93402 -0.19934 -0.01730
430.70000 0.91146 -0.20033 0.03846
430.80000 0.91824 -0.03161 -0.05328
430.90000 0.89123 -0.02823 0.04817
431.00000 0.94692 -0.05152 0.00738
431.10000 0.94883 0.05114 -0.00991
431.20000 0.93632 -0.04814 0.03866
431.30000 0.88189 -0.14722 0.02785
431.40000 0.93123 -0.14906 -0.01651
431.50000 0.88096 0.12862 0.06141
431.60000 0.98750 0.27668 0.00403
431.70000 0.85290 0.17420 -0.02971
431.80000 1.00001 0.03224 0.00144
431.90000 0.88769 -0.18187 0.02371
432.00000 0.98318 -0.19476 -0.00219
432.10000 0.92907 -0.06667 0.03630
432.20000 0.88395 -0.16211 -0.00062
432.30000 0.93546 -0.19658 -0.03276
432.40000 0.90867 -0.21123 -0.01818
432.50000 0.96210 -0.12216 0.05251
432.60000 0.95407 -0.01083 -0.02974
432.70000 0.91542 -0.02733 -0.02254
432.80000 0.99132 -0.07355 0.03226
432.90000 0.90598 -0.10722 -0.08328
433.00000 0.92514 -0.23882 0.02446
433.10000 0.88537 -0.24322 0.03942
433.20000 1.01026 0.03279 -0.00116
433.30000 0.86342 0.43117 0.01674
433.40000 1.02695 0.38720 -0.02426
433.50000 0.88019 0.13548 -0.00826
433.60000 0.91558 -0.07200 -0.00873
433.70000 0.89648 0.00797 -0.06758
433.80000 0.88711 0.08509 0.01916
433.90000 0.89060 0.13915 0.00191
434.00000 0.96206 0.30775 -0.05803
434.10000 0.85459 0.31939 -0.01975
434.20000 0.93010 0.23014 0.01821
434.30000 0.87483 -0.00995 0.03108
434.40000 0.98872 -0.08807 -0.01091
434.50000 0.82422 -0.19490 -0.00420
434.60000 1.00408 -0.02618 0.03349
434.70000 0.87197 0.06241 -0.00094
434.80000 0.93234 0.11698 0.05457
434.90000 0.88364 0.18845 -0.04558
435.00000 0.92203 0.22890 -0.00230
435.10000 0.96978 0.00810 -0.09868
435.20000 0.88023 0.01510 0.02683
435.30000 0.96668 -0.09030 0.00322
435.40000 0.97159 -0.23415 -0.01349
435.50000 0.85957 -0.15394 -0.03078
435.60000 1.03183 -0.12224 -0.00112
435.70000 0.84945 -0.20754 0.03365
435.80000 0.96330 -0.16020 0.03182
435.90000 0.91241 -0.02590 -0.03792
436.00000 0.93581 -0.04952 0.08621
436.10000 0.91144 -0.05585 0.02850
436.20000 0.97993 -0.14510 -0.04133
436.30000 0.86233 -0.19635 0.00133
436.40000 0.89209 0.04093 -0.02076
436.50000 0.93450 0.03566 -0.03418
436.60000 0.94435 0.11460 0.03476
436.70000 0.88087 0.03713 0.01856
436.80000 0.95112 -0.14267 0.01609
436.90000 0.88129 -0.14385 -0.03071
437.00000 0.91761 -0.04929 0.02534
437.10000 0.96200 -0.01735 0.07375
437.20000 0.84368 0.03639 -0.02927
437.30000 1.00796 0.06217 -0.04353
437.40000 0.90789 -0.05206 0.06016
437.50000 0.90988 0.09902 -0.09870
437.60000 0.95623 0.09369 0.02554
437.70000 0.89982 0.13409 0.03514
437.80000 0.92663 0.12915 0.01173
437.90000 0.92381 0.14734 0.01476
438.00000 0.97802 0.04714 -0.01901
438.10000 0.92647 -0.15748 0.00872
438.20000 0.90678 -0.15173 -0.00413
438.30000 0.91105 -0.14908 -0.01756
438.40000 0.92465 -0.03921 -0.01160
438.50000 0.91773 -0.05093 0.02719
438.60000 0.92678 -0.00140 -0.00081
438.70000 0.94771 0.16707 -0.00708
438.80000 0.89707 0.20345 0.05107
438.90000 0.97025 0.14000 -0.00116
439.00000 0.93967 0.09892 -0.01125
439.10000 0.90006 0.09745 0.00023
439.20000 0.95498 0.13146 0.03818
439.30000 0.90369 0.16078 -0.04290
439.40000 0.89491 0.08480 -0.02754
439.50000 0.92794 0.16910 0.06419
439.60000 0.94869 0.00397 0.02021
439.70000 0.91222 0.06028 -0.04014
439.80000 0.96070 0.11159 -0.03362
439.90000 0.89022 0.05252 0.00825
440.00000 0.96493 -0.12891 -0.02324
440.10000 0.91377 -0.22011 0.01612
440.20000 0.95541 -0.12642 -0.01227
440.30000 0.94288 -0.10284 -0.02102
440.40000 0.89952 -0.09002 -0.02854
440.50000 0.94707 -0.05786 -0.02778
440.60000 0.92404 -0.03169 0.00504
440.70000 0.97549 -0.05699 -0.01541
440.80000 0.83985 -0.09934 0.01822
440.90000 0.97988 -0.28405 -0.05321
441.00000 0.92154 -0.19003 -0.01314
441.10000 0.90476 -0.04205 0.00417
441.20000 0.95109 0.02423 0.00449
441.30000 0.90023 0.18449 -0.05586
441.40000 1.00911 0.02304 -0.03403
441.50000 0.84645 -0.02427 0.01928
441.60000 0.97114 0.00757 -0.03987
441.70000 0.91536 0.07398 0.02335
441.80000 0.90218 0.17636 0.01635
441.90000 0.95715 0.27696 -0.06697
442.00000 0.91633 0.22606 -0.03927
442.10000 0.90872 0.03732 0.04799
442.20000 0.87516 -0.24766 -0.02137
442.30000 0.93155 -0.18334 -0.05355
442.40000 0.96249 0.04027 -0.04389
442.50000 0.89633 0.16055 0.07805
442.60000 1.05422 0.04749 -0.07551
442.70000 0.87009 -0.12119 -0.03781
442.80000 0.91201 -0.06722 0.02729
442.90000 0.94886 0.14628 0.01996
443.00000 0.95079 0.12697 -0.01724
443.10000 0.95170 0.22231 0.00646
443.20000 0.87971 0.36238 -0.04349
443.30000 0.96369 0.23272 -0.01636
443.40000 0.89369 0.03007 -0.00624
443.50000 0.93148 -0.21831 -0.03713
443.60000 0.88731 -0.29924 0.01155
443.70000 0.96744 -0.10082 0.02394
443.80000 0.90063 0.01511 -0.03407
443.90000 0.86643 -0.13984 0.01557
444.00000 0.97706 -0.08650 -0.02385
444.10000 0.87189 -0.13143 0.01102
444.20000 0.93328 -0.12331 -0.03566
444.30000 0.95472 -0.06728 0.02071
444.40000 0.94203 -0.02515 0.08224
444.50000 0.92265 -0.08421 -0.05367
444.60000 0.92009 0.11981 0.00992
444.70000 0.91235 0.08896 -0.00967
444.80000 0.92522 0.03698 0.01959
444.90000 0.96295 0.22752 -0.03216
445.00000 0.92757 -0.01452 -0.00018
445.10000 0.88862 -0.11779 -0.01723
445.20000 0.92322 -0.06771 -0.00377
445.30000 0.94057 0.07342 -0.03340
445.40000 0.91090 0.09654 0.04127
445.50000 0.92979 -0.00487 0.06777
445.60000 0.88533 0.00900 0.01327
445.70000 0.94002 0.18652 -0.05335
445.80000 0.87022 0.18243 -0.01558
445.90000 0.95472 0.07608 0.00611
446.00000 0.91808 -0.20048 0.01171
446.10000 0.94085 -0.27996 0.03791
446.20000 0.86426 -0.08670 0.00824
446.30000 0.88488 -0.01283 0.01372
446.40000 0.96677 -0.07340 0.03367
446.50000 0.94088 -0.03677 0.01764
446.60000 0.88546 -0.01602 -0.09356
446.70000 0.99787 -0.01074 -0.02118
446.80000 0.86501 -0.02192 0.01711
446.90000 0.95444 0.02398 -0.00238
447.00000 0.90660 -0.02650 0.04029
447.10000 0.96731 0.04507 0.05571
447.20000 0.85569 0.26819 -0.04859
447.30000 0.92857 0.24044 0.07911
447.40000 0.96923 0.12709 0.00335
447.50000 0.85895 0.10219 -0.04601
447.60000 0.93756 -0.08758 0.01958
447.70000 0.95339 -0.09629 -0.03714
447.80000 0.86700 -0.04276 0.00376
447.90000 0.99109 -0.04823 0.01902
448.00000 0.84412 -0.00660 -0.02692
448.10000 0.90834 -0.24552 0.01853
448.20000 0.90001 -0.22864 0.05078
448.30000 0.88964 0.09444 -0.00991
448.40000 0.95277 0.02981 -0.03201
448.50000 0.93780 -0.07869 0.01150
448.60000 0.92110 -0.23000 -0.00232
448.70000 0.87319 -0.22586 -0.03243
448.80000 0.95343 -0.18899 0.04296
448.90000 0.90499 -0.03679 0.02100
449.00000 0.94583 -0.00539 0.01324
449.10000 0.88555 0.01358 0.02654
449.20000 0.88252 -0.02993 0.00329
449.30000 0.93668 0.02225 -0.02786
449.40000 0.95394 0.11242 -0.00876
449.50000 0.91474 -0.02598 -0.05536
449.60000 0.93774 -0.24514 0.00905
449.70000 0.95914 -0.16546 0.04181
449.80000 0.88573 0.01291 -0.05427
449.90000 0.90319 0.06053 0.00403
450.00000 0.98883 -0.07345 0.06441
450.10000 0.88787 -0.14014 -0.05389
450.20000 0.94636 -0.05759 -0.04579
450.30000 0.93686 -0.06607 0.08389
450.40000 0.91542 -0.06344 -0.01545
450.50000 0.95641 0.02366 -0.03091
450.60000 0.88046 0.20686 0.06209
450.70000 0.93820 0.24564 -0.06947
450.80000 0.93878 0.18407 0.01956
450.90000 0.92188 0.08518 0.02197
451.00000 0.90990 0.11258 -0.06002
451.10000 0.90096 -0.01628 0.01983
451.20000 0.91698 0.01349 -0.01618
451.30000 0.97396 -0.00354 -0.01045
451.40000 0.91691 -0.13598 -0.01000
451.50000 0.88148 -0.00235 0.00284
451.60000 0.93561 0.16149 0.04218
451.70000 0.94112 0.01259 0.01034
451.80000 0.89767 0.06348 -0.01755
451.90000 0.91550 0.17132 0.02438
452.00000 0.90574 0.12654 -0.03501
452.10000 0.91639 -0.00767 -0.01568
452.20000 0.89191 -0.03521 0.06124
452.30000 0.97013 -0.03485 0.04788
452.40000 0.90454 -0.00638 -0.04773
452.50000 1.05089 -0.07282 0.04404
452.60000 0.85866 -0.09699 -0.04691
452.70000 0.94444 0.00314 0.01714
452.80000 0.86666 0.10413 0.00209
452.90000 0.97509 -0.06058 0.00222
453.00000 0.94546 -0.16369 0.05802
453.10000 0.83576 -0.09062 0.02446
453.20000 0.91453 0.05502 0.00517
453.30000 0.91073 0.17885 -0.01809
453.40000 0.95847 0.01190 -0.03003
453.50000 0.89352 -0.15225 0.03033
453.60000 0.90285 -0.02246 0.01983
453.70000 0.96332 -0.10328 -0.08972
453.80000 0.95324 -0.09277 0.03833
453.90000 0.87732 -0.02516 0.03623
454.00000 0.94846 -0.00550 0.01046
454.10000 0.93012 0.06766 -0.00914
454.20000 0.84201 -0.07447 -0.05085
454.30000 0.95260 -0.11905 -0.00967
454.40000 0.92481 -0.09818 0.01198
454.50000 0.93073 -0.11846 -0.00843
454.60000 0.89909 -0.06027 -0.03995
454.70000 0.89622 -0.26385 0.03624
454.80000 0.93072 -0.11213 -0.02293
454.90000 0.91818 -0.07330 0.01503
455.00000 0.96382 -0.07012 -0.05603
455.10000 0.88898 -0.03756 0.00812
455.20000 0.90200 -0.13761 0.01725
455.30000 0.93245 -0.08578 -0.05964
455.40000 0.95972 -0.09523 0.00487
455.50000 0.90197 -0.14732 0.02499
455.60000 0.90084 -0.04521 -0.03460
455.70000 0.98390 -0.00258 0.00788
455.80000 0.85414 0.05030 0.00841
455.90000 0.98964 0.20314 -0.03788
456.00000 0.90587 0.03608 0.01257
456.10000 0.90067 -0.14357 0.04521
456.20000 0.94613 -0.08988 0.02779
456.30000 0.93966 -0.17024 -0.03192
456.40000 0.94241 0.06530 0.01752
456.50000 0.92075 0.31097 0.06490
456.60000 0.92894 0.21970 -0.04818
456.70000 0.99557 -0.11646 0.01037
456.80000 0.86892 -0.36933 0.03109
456.90000 0.88078 -0.36258 -0.01041
457.00000 0.89171 -0.16416 0.02077
457.10000 0.90401 0.06993 0.02146
457.20000 0.93513 0.20303 -0.02217
457.30000 0.90734 0.19413 0.03739
457.40000 0.90322 0.10191 0.01481
457.50000 0.95267 -0.10598 0.01057
457.60000 0.88992 -0.17196 -0.07135
457.70000 0.90898 -0.21481 -0.01691
457.80000 0.91835 -0.00188 0.04726
457.90000 0.99369 0.18861 -0.02989
458.00000 0.89998 0.23539 -0.02039
458.10000 0.97086 0.24909 -0.00172
458.20000 0.88428 0.06685 0.03239
458.30000 1.00598 -0.00894 -0.01356
458.40000 0.93883 -0.04849 -0.00191
458.50000 0.86188 -0.04057 -0.04358
458.60000 0.99603 0.02928 0.00560
458.70000 0.91190 -0.05396 0.01643
458.80000 0.92459 -0.22073 0.01945
458.90000 0.94318 -0.31995 -0.06350
459.00000 0.90524 -0.18206 0.00371
459.10000 0.91759 0.17639 0.04090
459.20000 0.93197 0.18089 -0.00454
459.30000 0.94627 0.10275 -0.02761
459.40000 0.83402 -0.07763 -0.01393
459.50000 1.00474 -0.17434 0.04531
459.60000 0.84279 0.01820 -0.07073
459.70000 0.95395 0.12206 0.02728
459.80000 0.90743 0.02457 0.06882
459.90000 0.91041 -0.13522 0.04455
460.00000 0.96872 -0.12490 -0.01742
460.10000 0.88655 0.00568 0.03093
460.20000 0.91816 -0.00002 0.01722
460.30000 0.92275 0.12224 0.03203
460.40000 0.95506 0.14041 -0.02703
460.50000 0.89487 0.31492 -0.02196
460.60000 0.96868 0.30216 0.01551
460.70000 0.93929 0.48624 -0.02084
460.80000 0.88122 0.32321 -0.02962
460.90000 0.95103 0.15562 0.03432
461.00000 0.89536 0.03560 0.02093
461.10000 0.94521 0.04025 -0.03739
461.20000 0.89390 -0.02437 0.04694
461.30000 0.96501 -0.07352 -0.00350
461.40000 0.86754 -0.02070 -0.01695
461.50000 0.95745 0.01698 0.00181
461.60000 0.91599 -0.02113 -0.05359
461.70000 0.95129 0.00157 0.03604
461.80000 0.86290 -0.11403 0.00423
461.90000 0.96790 -0.05993 0.01511
462.00000 0.89361 -0.09700 0.03309
462.10000 0.95070 -0.13920 0.03151
462.20000 0.90815 -0.27729 0.00108
462.30000 0.93955 -0.28157 0.03891
462.40000 0.92180 -0.06642 0.02067
462.50000 0.98928 -0.18707 -0.09266
462.60000 0.91668 -0.32076 -0.03777
462.70000 0.93805 -0.05690 0.05029
462.80000 0.92482 0.11283 0.03131
462.90000 0.86645 0.07772 -0.00059
463.00000 0.95795 -0.00963 0.03397
463.10000 0.90036 -0.11136 -0.00356
463.20000 0.89696 -0.07388 0.04890
463.30000 0.94260 0.04470 -0.02410
463.40000 0.90284 -0.12307 -0.05465
463.50000 0.89153 -0.18684 -0.02439
463.60000 0.95508 0.11706 0.01130
463.70000 0.93052 0.15126 -0.00107
463.80000 0.90172 0.15471 0.02892
463.90000 0.89459 -0.09520 0.02787
464.00000 0.96374 -0.25530 0.01377
464.10000 0.89973 -0.40422 -0.04426
464.20000 0.88742 -0.16713 0.06651
464.30000 0.98417 -0.08557 0.01827
464.40000 0.84332 0.04725 -0.02657
464.50000 0.97358 0.01925 -0.04042
464.60000 0.87710 0.01992 0.01899
464.70000 0.87380 0.04393 -0.00847
464.80000 0.95892 0.19252 -0.04512
464.90000 0.86153 0.26508 0.04931
465.00000 0.97137 0.16127 0.01788
465.10000 0.90822 0.07050 -0.03221
465.20000 0.93779 -0.10654 0.03535
465.30000 0.96703 -0.19894 -0.02186
465.40000 0.93254 -0.21887 0.03743
465.50000 0.87958 0.02300 -0.01707
465.60000 0.97973 0.07684 0.00493
465.70000 0.90571 0.18223 -0.05384
465.80000 0.97758 0.15211 -0.05604
465.90000 0.85178 -0.04224 0.02000
466.00000 1.00838 -0.01605 -0.00246
466.10000 0.92903 0.03744 0.00782
466.20000 0.90021 0.01250 -0.01579
466.30000 0.97636 -0.05471 -0.01794
466.40000 0.92268 -0.15305 -0.00633
466.50000 0.93500 -0.02587 0.03025
466.60000 0.85713 -0.14552 0.05606
466.70000 0.96424 -0.23859 -0.08499
466.80000 0.88559 -0.26501 0.02768
466.90000 0.96882 -0.18800 -0.04985
467.00000 0.93928 -0.22232 0.06056
467.10000 0.91879 -0.04289 0.02066
467.20000 1.02058 0.09562 -0.01668
467.30000 0.81823 0.17022 0.04890
467.40000 0.97819 0.28689 0.01136
467.50000 0.84896 0.39083 0.02122
467.60000 0.93948 0.29039 -0.02611
467.70000 0.88623 -0.01725 -0.00558
467.80000 0.95088 -0.12205 0.05945
467.90000 0.90532 -0.04991 0.02738
468.00000 0.94762 0.02959 -0.07811
468.10000 0.91789 0.02292 0.04983
468.20000 0.90155 0.02458 0.00044
468.30000 0.91639 0.08869 -0.01666
468.40000 0.88924 0.11659 0.02020
468.50000 1.00530 -0.11534 0.03550
468.60000 0.81985 -0.10669 0.04075
468.70000 0.96315 -0.10186 -0.01817
468.80000 0.91301 -0.06442 -0.00910
468.90000 0.94891 -0.21743 0.04501
469.00000 0.89393 -0.22635 0.09290
469.10000 1.00434 -0.03641 0.02169
469.20000 0.84313 0.02620 0.02365
469.30000 1.00533 0.00876 -0.02231
469.40000 0.93890 -0.04677 0.00678
469.50000 0.90161 0.05432 0.03375
469.60000 0.92308 0.14899 0.03733
469.70000 0.93103 0.20601 0.00897
469.80000 0.91810 -0.10904 0.01927
469.90000 0.92898 -0.02874 0.04223
470.00000 0.88701 -0.07117 -0.01382
470.10000 0.94441 0.02581 0.02530
470.20000 0.89860 0.15395 -0.00103
470.30000 0.91965 0.13768 -0.00273
470.40000 0.91224 0.00473 -0.01161
470.50000 0.94185 0.05151 0.04397
470.60000 0.97295 0.10904 -0.00211
470.70000 0.89393 -0.03471 0.00254
470.80000 0.91435 0.01469 -0.02061
470.90000 0.89362 0.13518 0.02496
471.00000 1.01864 0.36908 0.05749
471.10000 0.82450 0.18359 -0.03310
471.20000 0.99918 -0.01985 0.01155
471.30000 0.85766 -0.04673 0.03044
471.40000 0.92604 0.10252 -0.03431
471.50000 0.91247 0.10677 0.06167
471.60000 0.89976 -0.04571 0.03943
471.70000 0.93315 -0.10551 -0.04055
471.80000 0.85777 -0.16352 -0.01061
471.90000 1.01946 -0.10380 0.03807
472.00000 0.91316 0.24300 0.02015
472.10000 0.91060 0.23268 -0.02565
472.20000 0.97559 -0.04218 -0.00304
472.30000 0.94704 -0.12755 0.02065
472.40000 0.89831 -0.26080 -0.01984
472.50000 0.94258 -0.20576 0.00538
472.60000 0.86990 -0.01337 -0.04783
472.70000 0.98034 -0.00583 0.01556
472.80000 0.90042 -0.13010 0.00440
472.90000 0.82809 0.06153 -0.02642
473.00000 1.01762 0.14649 -0.01259
473.10000 0.81088 0.16082 0.05694
473.20000 1.02469 0.26865 0.01112
473.30000 0.88740 0.18191 -0.03637
473.40000 0.92744 0.01147 -0.04229
473.50000 0.90054 0.02975 0.07377
473.60000 0.91568 0.10483 0.01645
473.70000 1.00006 0.23717 -0.01258
473.80000 0.78237 0.25489 0.00901
473.90000 0.99844 0.15198 -0.02669
474.00000 0.85003 0.06809 0.03876
474.10000 1.01973 -0.18238 0.03913
474.20000 0.84748 -0.24125 -0.03969
474.30000 0.91351 -0.02612 0.01725
474.40000 0.96080 0.13432 -0.00819
474.50000 0.85777 0.10987 -0.01768
474.60000 0.97408 0.00735 -0.03369
474.70000 0.90964 -0.21701 -0.00571
474.80000 0.89530 -0.12318 -0.03397
474.90000 0.96284 -0.02019 -0.01619
475.00000 0.91167 0.00849 0.00908
475.10000 0.93492 0.08690 0.02039
475.20000 0.91251 0.07402 0.02331
475.30000 0.86021 -0.04574 0.00324
475.40000 0.89397 -0.10009 0.03654
475.50000 0.94709 -0.14232 -0.02731
475.60000 0.96882 -0.03759 -0.02156
475.70000 0.93453 0.27354 -0.02871
475.80000 0.92243 0.11157 -0.02021
475.90000 0.89398 -0.23870 -0.02579
476.00000 0.94255 -0.36421 -0.00845
476.10000 0.97376 -0.36705 -0.02734
476.20000 0.92415 -0.27722 0.01666
476.30000 0.95858 -0.04661 0.06035
476.40000 0.94566 0.20569 -0.02954
476.50000 0.90969 0.16888 -0.02870
476.60000 0.93512 0.08855 0.01240
476.70000 0.92658 -0.14915 0.04637
476.80000 0.89807 -0.18143 0.01062
476.90000 0.92846 -0.08480 0.03819
477.00000 0.95696 -0.00742 -0.01829
477.10000 0.93817 0.08036 -0.02550
477.20000 0.85541 0.12682 0.04643
477.30000 0.99163 0.20758 -0.02789
477.40000 0.93023 0.22453 0.02760
477.50000 0.94176 0.15476 0.03494
477.60000 0.92696 -0.00078 0.01556
477.70000 0.92846 -0.05670 0.01981
477.80000 0.96523 -0.00622 0.03176
477.90000 0.92812 0.15384 -0.01450
478.00000 0.96866 0.25051 -0.02661
478.10000 0.91228 0.11510 -0.01506
478.20000 0.92200 0.04332 -0.04129
478.30000 0.96591 0.01404 -0.03426
478.40000 0.88882 -0.22037 -0.04948
478.50000 0.94725 -0.21719 0.04933
478.60000 0.85770 -0.06138 0.00834
478.70000 0.95754 0.08319 0.04427
478.80000 0.90844 0.15260 0.07128
478.90000 0.88740 0.13849 -0.03255
479.00000 0.98485 -0.26690 0.00883
479.10000 0.88978 -0.34705 0.03159
479.20000 0.90596 -0.22794 0.03392
479.30000 0.94129 -0.04620 -0.04300
479.40000 0.89739 -0.20183 0.00901
479.50000 0.89727 -0.40869 -0.01581
479.60000 0.97742 -0.16867 0.00911
479.70000 0.86369 0.10532 0.00631
479.80000 0.98059 0.24756 0.01375
479.90000 0.89749 0.27910 -0.01391
480.00000 0.95039 0.00987 0.00081
480.10000 0.95670 -0.22379 0.00294
480.20000 0.87812 -0.21753 -0.06076
480.30000 0.98659 -0.33847 -0.01952
480.40000 0.86981 -0.09493 0.00789
480.50000 0.90230 0.15846 -0.02986
480.60000 0.91770 0.34212 -0.02946
480.70000 0.95873 0.35821 0.05597
480.80000 0.90949 -0.04495 -0.02281
480.90000 0.90757 -0.19267 -0.02758
481.00000 0.97960 -0.38338 0.07321
481.10000 0.88150 -0.37615 0.02522
481.20000 0.97215 -0.37854 -0.03275
481.30000 0.94203 -0.13424 0.01501
481.40000 0.90856 0.06225 -0.01906
481.50000 0.90000 0.18582 0.00598
481.60000 1.01928 0.11236 0.07917
481.70000 0.81523 0.10858 -0.09194
481.80000 0.95085 0.05097 -0.00091
481.90000 0.83316 -0.08755 0.09652
482.00000 0.96562 -0.06977 -0.00542
482.10000 0.91335 0.10586 -0.02010
482.20000 0.90818 0.26367 0.02329
482.30000 0.92864 0.12960 -0.05270
482.40000 0.89268 0.02673 0.08397
482.50000 0.90763 0.05710 0.00915
482.60000 0.97137 0.01756 0.00401
482.70000 0.93379 -0.11716 0.01615
482.80000 0.96470 -0.09412 -0.03268
482.90000 0.89771 -0.14009 0.00836
483.00000 0.93718 -0.29875 0.03907
483.10000 0.91682 -0.24842 0.01199
483.20000 0.94818 -0.00311 -0.00851
483.30000 0.91519 0.32580 -0.00117
483.40000 0.96550 0.30198 0.05944
483.50000 0.89235 -0.00966 -0.00535
483.60000 0.97757 -0.03768 -0.03127
483.70000 0.88201 0.00681 -0.02586
483.80000 0.95061 -0.14924 0.06452
483.90000 0.94034 -0.14266 -0.05542
484.00000 0.96867 -0.05588 -0.05428
484.10000 0.94864 -0.10803 0.01509
484.20000 0.91345 -0.18182 0.01628
484.30000 0.99992 -0.18660 0.00988
484.40000 0.93629 -0.08570 -0.05831
484.50000 0.91253 0.09121 -0.04495
484.60000 0.93708 0.13320 0.06135
484.70000 0.92107 0.07726 0.01504
484.80000 0.88399 -0.09471 -0.04166
484.90000 0.92462 -0.03866 0.02900
485.00000 0.92216 -0.06771 -0.01291
485.10000 0.92091 -0.17542 -0.04729
485.20000 0.89174 -0.05516 0.05406
485.30000 0.90463 0.12673 -0.00261
485.40000 0.92926 0.14564 -0.03260
485.50000 0.97417 0.13389 -0.00710
485.60000 0.89205 0.07635 0.01859
485.70000 0.88689 0.07803 0.00686
485.80000 0.96075 -0.00453 -0.03400
485.90000 0.90907 0.07648 0.05050
486.00000 0.92127 -0.02870 -0.06122
486.10000 0.93428 -0.02423 -0.01551
486.20000 0.93275 0.11981 0.07115
486.30000 0.90629 0.14854 0.00325
486.40000 0.92726 0.07595 -0.08459
486.50000 0.93746 -0.02189 0.08898
486.60000 0.94494 -0.01571 0.01543
486.70000 0.89586 -0.00403 -0.05240
486.80000 0.93871 -0.01095 -0.05473
486.90000 0.91687 -0.05152 0.08442
487.00000 0.89676 -0.14929 -0.03167
487.10000 0.94208 -0.03967 0.01459
487.20000 0.92441 0.18221 0.02109
487.30000 0.90569 0.31635 -0.01689
487.40000 0.96370 -0.01380 -0.00660
487.50000 0.87472 -0.04959 -0.00084
487.60000 1.00372 0.08838 0.00834
487.70000 0.88102 0.13588 0.02162
487.80000 0.91423 -0.01337 -0.03537
487.90000 0.97612 -0.28572 0.02211
488.00000 0.90867 -0.39381 0.01933
488.10000 1.01815 -0.09141 -0.02097
488.20000 0.92342 0.07148 -0.00346
488.30000 0.92051 0.04229 0.04050
488.40000 0.96111 0.01606 -0.02701
488.50000 0.82656 0.09515 0.05500
488.60000 0.93262 0.15690 -0.01538
488.70000 0.99174 0.24315 -0.04071
488.80000 0.83018 0.06910 0.00785
488.90000 0.95490 -0.06457 0.03369
489.00000 0.96693 0.10623 -0.01162
489.10000 0.92774 0.07253 0.01894
489.20000 0.95391 -0.01835 -0.02219
489.30000 0.95887 0.01133 0.02529
489.40000 0.91433 -0.02520 -0.02175
489.50000 0.94143 -0.02515 0.05922
489.60000 0.94941 -0.10592 0.01329
489.70000 0.94276 -0.34970 0.03766
489.80000 0.90883 -0.25955 0.00401
489.90000 0.90388 -0.15421 0.01366
490.00000 0.93633 0.04078 -0.00387
490.10000 0.88277 0.08578 -0.04122
490.20000 0.96573 -0.01921 -0.03943
490.30000 0.93907 -0.12506 0.01121
490.40000 0.87160 0.06106 0.02996
490.50000 0.96161 0.10255 0.02251
490.60000 0.95911 -0.00310 -0.02280
490.70000 0.87311 -0.24717 0.02524
490.80000 0.94051 -0.18617 -0.01270
490.90000 0.92558 0.24337 -0.01516
491.00000 0.92434 0.38027 0.05212
491.10000 0.96748 0.25204 -0.04295
491.20000 0.90007 0.05371 0.00494
491.30000 0.96355 -0.07404 0.01355
491.40000 0.92385 -0.07049 -0.07741
491.50000 0.98815 0.11312 0.08943
491.60000 0.85856 0.05349 0.03124
491.70000 0.98969 -0.16592 -0.05410
491.80000 0.92458 -0.19418 -0.03692
491.90000 0.90340 -0.22443 -0.05178
492.00000 0.90669 -0.03080 0.06790
492.10000 0.89370 -0.06159 0.04728
492.20000 0.93484 -0.04107 -0.09900
492.30000 0.89334 0.16476 -0.01841
492.40000 0.97349 0.24141 0.01716
492.50000 0.91180 0.21321 -0.01265
492.60000 0.89438 0.19732 0.02149
492.70000 0.94955 -0.00205 -0.01154
492.80000 0.93196 -0.16118 0.01625
492.90000 0.85966 -0.35150 -0.01183
493.00000 0.96696 -0.34576 0.02570
493.10000 0.94412 -0.08015 0.03901
493.20000 0.96477 0.08238 0.00949
493.30000 0.86372 0.21565 -0.00169
493.40000 0.96622 0.04114 -0.00525
493.50000 0.89258 -0.22854 0.04751
493.60000 0.95141 -0.14595 -0.00574
493.70000 0.84792 0.26911 -0.01425
493.80000 0.93163 0.43216 -0.00421
493.90000 0.89415 0.33433 0.00720
494.00000 0.92694 0.04796 0.01291
494.10000 0.92676 -0.13515 -0.00007
494.20000 0.90536 -0.20206 -0.01131
494.30000 0.97300 -0.01797 0.00601
494.40000 0.85090 -0.01753 -0.02970
494.50000 0.97192 -0.07030 -0.01961
494.60000 0.88635 0.01404 0.01103
494.70000 0.85958 -0.00465 -0.03745
494.80000 0.93370 -0.17699 -0.02597
494.90000 0.99968 -0.16608 -0.01332
495.00000 0.92066 -0.06591 0.01539
495.10000 0.92017 0.00700 0.01095
495.20000 0.91496 0.20581 0.01732
495.30000 0.90767 0.25452 -0.00947
495.40000 0.99434 0.06855 0.04857
495.50000 0.79335 -0.34616 -0.00062
495.60000 1.00186 -0.58678 -0.01367
495.70000 0.95830 -0.32258 -0.00455
495.80000 0.88530 -0.15775 0.07792
495.90000 0.89727 -0.01704 0.00501
496.00000 0.89751 0.03367 0.01939
496.10000 1.00303 0.09904 -0.00985
496.20000 0.84272 0.06471 0.09124
496.30000 1.02248 0.21326 -0.05076
496.40000 0.90274 0.13123 -0.00162
496.50000 0.96428 -0.01087 -0.00355
496.60000 0.93988 -0.22298 -0.01706
496.70000 0.90967 -0.22234 -0.00640
496.80000 0.93967 -0.01245 0.01695
496.90000 1.00571 0.18787 -0.07232
497.00000 0.85646 0.03230 -0.02445
497.10000 0.95288 -0.09859 0.05929
497.20000 0.92818 -0.14438 -0.02081
497.30000 0.91824 -0.09220 -0.03204
497.40000 0.91239 0.01622 -0.01946
497.50000 0.90732 0.00031 0.03505
497.60000 0.93961 -0.02434 -0.05175
497.70000 0.93108 -0.17783 0.02878
497.80000 0.91059 -0.17798 -0.00026
497.90000 0.94800 -0.11989 0.04878
498.00000 0.90179 -0.11934 0.03329
498.10000 0.96432 0.02028 -0.07765
498.20000 0.90492 0.10955 0.04768
498.30000 0.92942 -0.03022 -0.02357
498.40000 0.93535 -0.08773 -0.00556
498.50000 0.91365 -0.18676 0.01845
498.60000 0.90790 -0.05537 0.03303
498.70000 0.93101 0.07796 -0.05361
498.80000 0.96299 0.23181 -0.02930
498.90000 0.90039 0.22682 0.01062
499.00000 0.94329 0.09220 0.00156
499.10000 0.88764 -0.07896 0.01441
499.20000 0.92820 -0.12713 -0.00171
499.30000 0.94955 -0.08945 0.01766
499.40000 0.91014 0.00779 0.02142
499.50000 0.97545 0.07685 -0.04304
499.60000 0.92041 -0.02195 0.07301
499.70000 0.92759 0.04590 0.05750
499.80000 0.94545 0.14295 -0.01771
499.90000 0.91865 0.16157 0.01732
500.00000 0.93671 0.02242 -0.10298
