# t[ps]  x[nm]  y[nm]  z[nm]
0.00000 0.02437 -0.01429 0.00510
0.10000 1.19779 -0.00928 -0.01890
0.20000 0.67031 0.09055 0.01615
0.30000 0.91564 -0.03438 -0.04243
0.40000 0.86905 -0.03874 0.03830
0.50000 0.77437 0.02681 0.02461
0.60000 0.90491 0.09206 0.01251
0.70000 0.84836 -0.06446 -0.04168
0.80000 0.80867 0.02990 -0.00870
0.90000 0.90048 0.15257 0.02045
1.00000 0.78479 0.09183 -0.02244
1.10000 0.83474 0.07164 0.06187
1.20000 0.86942 -0.08379 -0.05971
1.30000 0.82439 -0.02908 -0.02945
1.40000 0.89796 -0.02025 0.03039
1.50000 0.83135 0.00485 0.04266
1.60000 0.86924 0.23353 0.00078
1.70000 0.79498 -0.00757 -0.04335
1.80000 0.83003 -0.33729 -0.00640
1.90000 0.86267 -0.47834 0.01271
2.00000 0.80608 -0.18060 -0.01196
2.10000 0.87453 0.04953 -0.00619
2.20000 0.81079 0.15123 -0.04034
2.30000 0.91265 0.17848 0.00783
2.40000 0.81367 0.14486 0.03607
2.50000 0.88400 -0.09737 0.03078
2.60000 0.89706 -0.21112 -0.02771
2.70000 0.79744 -0.02522 -0.00576
2.80000 0.89829 0.04244 0.02792
2.90000 0.86767 0.16021 -0.02449
3.00000 0.77806 0.08415 -0.07339
3.10000 0.86408 0.00284 -0.00574
3.20000 0.87577 -0.07216 -0.00496
3.30000 0.87715 -0.10043 0.03881
3.40000 0.85199 -0.11330 -0.03384
3.50000 0.92136 0.03261 0.03476
3.60000 0.80089 0.09849 -0.00399
3.70000 0.89060 0.19085 0.06993
3.80000 0.74330 0.42189 -0.04114
3.90000 0.90833 0.50127 -0.01599
4.00000 0.83480 0.19124 0.05187
4.10000 0.84292 -0.08561 -0.01180
4.20000 0.83831 -0.14990 -0.00207
4.30000 0.85150 0.04665 -0.04910
4.40000 0.91349 0.13330 0.04162
4.50000 0.79976 -0.04354 0.02915
4.60000 0.85842 -0.25553 -0.01777
4.70000 0.79832 -0.06783 0.03786
4.80000 0.93457 -0.04036 -0.03386
4.90000 0.73040 -0.15087 0.03187
5.00000 0.81880 -0.25850 -0.03631
5.10000 0.82992 -0.25425 0.01446
5.20000 0.84942 -0.08001 0.02184
5.30000 0.81773 -0.09420 -0.03063
5.40000 0.83645 0.08846 0.00519
5.50000 0.84430 0.08772 -0.04061
5.60000 0.84298 -0.08002 -0.00052
5.70000 0.86333 -0.21342 0.00409
5.80000 0.82640 -0.32293 0.01179
5.90000 0.86538 -0.12541 0.01342
6.00000 0.81902 0.10041 -0.04135
6.10000 0.85201 0.06562 0.01090
6.20000 0.85708 -0.13377 -0.01223
6.30000 0.83600 -0.17935 -0.00166
6.40000 0.82897 -0.05481 0.04573
6.50000 0.84994 -0.01585 -0.00448
6.60000 0.82051 -0.11719 -0.02383
6.70000 0.85500 -0.10729 0.04967
6.80000 0.93990 -0.17547 -0.01323
6.90000 0.78962 -0.21428 0.01319
7.00000 0.90243 -0.22328 -0.02790
7.10000 0.82979 -0.04561 -0.01926
7.20000 0.76739 0.10853 -0.00368
7.30000 0.89029 0.14930 -0.05447
7.40000 0.81587 0.00225 -0.01315
7.50000 0.83943 -0.14421 0.00819
7.60000 0.82426 -0.25997 0.05011
7.70000 0.84011 -0.11546 -0.00075
7.80000 0.86402 -0.09975 -0.02592
7.90000 0.88755 -0.13360 -0.06191
8.00000 0.79024 -0.10106 0.05910
8.10000 0.89582 0.07063 -0.00194
8.20000 0.85248 0.21614 -0.02786
8.30000 0.84403 0.22574 -0.03083
8.40000 0.86341 0.08770 0.06289
8.50000 0.80203 0.01895 0.02375
8.60000 0.85607 -0.02929 -0.03252
8.70000 0.81789 -0.08346 -0.02752
8.80000 0.94098 -0.12442 0.00558
8.90000 0.67805 -0.13319 0.01929
9.00000 0.94973 -0.02593 -0.03511
9.10000 0.80266 -0.02838 0.03212
9.20000 0.88485 -0.19450 0.01527
9.30000 0.88018 -0.24631 0.02118
9.40000 0.83199 -0.01403 0.00513
9.50000 0.83755 0.01246 -0.03690
9.60000 0.86679 -0.12272 0.07368
9.70000 0.90404 -0.28658 -0.05189
9.80000 0.82371 -0.23033 -0.03082
9.90000 0.79760 -0.05546 0.08035
10.00000 0.84190 -0.01804 0.03903
10.10000 0.84918 0.08095 -0.06821
10.20000 0.92009 0.02636 0.04775
10.30000 0.85403 0.02546 0.05025
10.40000 0.84310 0.14631 -0.01550
10.50000 0.86701 0.13260 -0.03762
10.60000 0.84436 0.03755 -0.00087
10.70000 0.89836 0.10369 0.05066
10.80000 0.74616 0.07390 0.08737
10.90000 0.87029 0.10254 -0.04964
11.00000 0.80579 0.04541 -0.03756
11.10000 0.88270 -0.10511 0.01929
11.20000 0.93200 -0.00422 -0.00490
11.30000 0.76059 -0.02599 -0.05388
11.40000 0.97204 -0.19031 0.00825
11.50000 0.78455 -0.35093 -0.00891
11.60000 0.79797 -0.18187 -0.01884
11.70000 0.84537 -0.14657 0.03301
11.80000 0.80817 -0.21615 -0.03427
11.90000 0.85381 -0.18558 0.05695
12.00000 0.84993 -0.08292 0.01912
12.10000 0.84710 -0.04336 -0.01341
12.20000 0.85133 -0.06269 0.00721
12.30000 0.81990 -0.08641 0.05238
12.40000 0.86784 -0.11523 0.01189
12.50000 0.91216 -0.07519 0.01446
12.60000 0.81597 0.00081 -0.02132
12.70000 0.94883 0.06323 0.03536
12.80000 0.77553 0.13063 -0.03281
12.90000 0.82603 0.24479 -0.01595
13.00000 0.92537 -0.06638 -0.01021
13.10000 0.74865 -0.21175 0.00360
13.20000 0.91334 -0.24029 0.03670
13.30000 0.86039 -0.26452 0.03662
13.40000 0.86195 -0.13263 -0.03414
13.50000 0.81699 0.03313 0.06858
13.60000 0.80947 0.02064 -0.01605
13.70000 0.88757 -0.09029 -0.05713
13.80000 0.81840 0.02602 -0.02420
13.90000 0.88008 0.07431 0.00727
14.00000 0.84043 0.14960 -0.03244
14.10000 0.89060 0.11852 0.01260
14.20000 0.73278 0.08333 0.01097
14.30000 0.96324 -0.05466 0.05218
14.40000 0.72883 -0.07334 0.02058
14.50000 0.88781 -0.02238 -0.02831
14.60000 0.83883 0.04994 -0.02184
14.70000 0.81208 0.07066 0.05890
14.80000 0.82150 -0.05295 -0.00876
14.90000 0.84867 -0.02637 -0.07091
15.00000 0.82548 0.12117 0.00608
15.10000 0.88421 0.16522 -0.01322
15.20000 0.81861 0.00794 -0.01865
15.30000 0.83098 0.04361 0.00461
15.40000 0.84439 0.16020 -0.01930
15.50000 0.80996 0.05867 -0.01550
15.60000 0.85479 0.08188 -0.02346
15.70000 0.80123 -0.08373 -0.03958
15.80000 0.88196 -0.09053 0.02905
15.90000 0.83420 -0.02730 0.02344
16.00000 0.90224 0.08294 -0.06457
16.10000 0.76051 -0.00553 0.04658
16.20000 0.89156 -0.07164 -0.00001
16.30000 0.79969 -0.03082 -0.05191
16.40000 0.80458 0.24440 0.05547
16.50000 0.84264 0.31626 -0.00954
16.60000 0.85069 0.19455 -0.04129
16.70000 0.79184 0.00927 0.02733
16.80000 0.87836 -0.06268 0.03471
16.90000 0.88776 0.07699 -0.02582
17.00000 0.84266 0.17302 0.01079
17.10000 0.86553 0.26961 0.03620
17.20000 0.83531 0.13245 -0.03004
17.30000 0.92126 0.12221 0.02865
17.40000 0.83135 0.06277 0.09250
17.50000 0.85245 -0.07553 -0.02715
17.60000 0.85968 -0.14666 -0.03652
17.70000 0.83443 -0.07667 0.04394
17.80000 0.87800 -0.11069 0.00108
17.90000 0.74260 0.02077 -0.06694
18.00000 0.94570 0.18863 0.00897
18.10000 0.74245 0.28160 -0.01181
18.20000 0.94715 0.21363 -0.04401
18.30000 0.76057 0.04159 0.02652
18.40000 0.89333 -0.05516 0.03682
18.50000 0.85700 -0.20493 -0.01428
18.60000 0.76338 -0.29120 -0.02935
18.70000 0.89516 -0.22313 0.03025
18.80000 0.78434 -0.07120 0.03716
18.90000 0.86071 0.09034 -0.00344
19.00000 0.79471 0.10630 -0.04030
19.10000 0.88789 0.03335 0.04616
19.20000 0.76015 -0.03489 0.01270
19.30000 0.90949 0.21250 -0.05821
19.40000 0.83772 0.39912 0.02365
19.50000 0.81731 0.38196 0.04381
19.60000 0.88810 0.26164 0.05047
19.70000 0.82220 -0.02830 -0.00336
19.80000 0.85942 -0.21510 -0.07339
19.90000 0.90759 -0.16563 0.03674
20.00000 0.74032 -0.02437 -0.02269
20.10000 0.92172 0.04031 0.04694
20.20000 0.81140 -0.02602 0.00992
20.30000 0.80345 -0.11196 -0.09525
20.40000 0.94161 0.00287 -0.01063
20.50000 0.73236 0.19770 0.04475
20.60000 1.01829 0.23614 -0.01420
20.70000 0.74823 0.13205 -0.01108
20.80000 0.89542 0.10673 0.00056
20.90000 0.89028 0.04337 0.05425
21.00000 0.80415 0.00116 -0.01127
21.10000 0.86716 0.13432 0.01010
21.20000 0.79853 0.12850 0.02519
21.30000 0.94366 -0.06298 0.01670
21.40000 0.81582 0.09785 0.00708
21.50000 0.89966 0.22303 -0.03314
21.60000 0.82679 0.13092 0.00196
21.70000 0.89827 -0.03691 0.02258
21.80000 0.76976 -0.09482 -0.02395
21.90000 0.89993 -0.22829 0.04829
22.00000 0.83952 -0.22360 -0.08868
22.10000 0.82723 -0.07867 0.00870
22.20000 0.89724 0.22213 0.03475
22.30000 0.78536 0.15086 0.01788
22.40000 0.86446 0.03122 -0.02422
22.50000 0.91693 -0.00470 -0.02804
22.60000 0.79854 -0.08226 0.02635
22.70000 0.86144 -0.23106 0.01748
22.80000 0.84958 -0.20922 0.01120
22.90000 0.87073 -0.27646 -0.02969
23.00000 0.85160 0.04427 -0.01429
23.10000 0.79771 0.31153 -0.00258
23.20000 0.86754 0.44194 -0.02181
23.30000 0.80053 0.31869 -0.03412
23.40000 0.87363 -0.02728 0.03739
23.50000 0.80929 -0.11360 0.02724
23.60000 0.85543 -0.12326 -0.04579
23.70000 0.79166 0.03969 -0.03481
23.80000 0.85938 0.01225 0.03339
23.90000 0.81573 -0.04338 -0.01177
24.00000 0.86052 -0.02905 0.04793
24.10000 0.81528 0.15033 0.03857
24.20000 0.89483 0.17557 -0.02605
24.30000 0.82717 0.05624 0.02338
24.40000 0.85070 -0.04068 0.01076
24.50000 0.84105 -0.24623 -0.02628
24.60000 0.82604 -0.39083 0.09368
24.70000 0.94025 -0.37323 -0.05960
24.80000 0.82441 -0.06600 -0.02718
24.90000 0.85398 0.16529 0.03076
25.00000 0.87613 0.11906 -0.02963
25.10000 0.78846 0.08809 0.03283
25.20000 0.81646 0.09111 -0.01146
25.30000 0.88705 0.02469 -0.00766
25.40000 0.80320 -0.06997 0.01230
25.50000 0.87943 0.00698 0.02870
25.60000 0.86685 0.04758 -0.04297
25.70000 0.83470 -0.00901 0.04769
25.80000 0.87581 -0.01748 0.04021
25.90000 0.72132 0.08670 -0.01340
26.00000 0.88035 0.19139 0.00670
26.10000 0.81969 0.24082 -0.03361
26.20000 0.86478 0.04065 0.02871
26.30000 0.83090 -0.29823 0.02404
26.40000 0.83801 -0.41511 -0.03890
26.50000 0.82261 -0.28923 0.04830
26.60000 0.83282 -0.12278 0.02777
26.70000 0.92055 0.13322 0.04324
26.80000 0.78599 0.32127 -0.02131
26.90000 0.85428 0.12825 0.01564
27.00000 0.85988 -0.02619 0.03125
27.10000 0.77830 -0.17776 -0.05232
27.20000 0.94573 -0.05620 -0.00230
27.30000 0.72689 0.00806 -0.00971
27.40000 0.96262 0.07847 -0.03549
27.50000 0.81849 -0.13454 -0.01987
27.60000 0.86126 -0.21669 -0.05494
27.70000 0.82509 0.05679 0.03898
27.80000 0.77909 0.22893 0.05558
27.90000 0.89072 0.17793 -0.05388
28.00000 0.84459 0.13598 0.00786
28.10000 0.80983 0.22070 0.00793
28.20000 0.86838 0.13412 -0.00814
28.30000 0.83505 0.11660 -0.02744
28.40000 0.88199 0.26091 -0.00978
28.50000 0.85954 0.15769 0.05141
28.60000 0.80070 0.08818 -0.03342
28.70000 0.89584 0.07881 0.00820
28.80000 0.77912 0.05262 -0.02560
28.90000 0.91739 0.11882 -0.05704
29.00000 0.82434 0.04864 0.07310
29.10000 0.84558 -0.06227 -0.05144
29.20000 0.87946 -0.05406 -0.04859
29.30000 0.85331 0.07037 0.06721
29.40000 0.83678 0.05435 -0.05971
29.50000 0.86999 0.10757 -0.05793
29.60000 0.90207 0.08220 0.00121
29.70000 0.78532 0.09164 0.07763
29.80000 0.91336 -0.06252 -0.07938
29.90000 0.77876 -0.09582 -0.05651
30.00000 0.89527 0.08831 0.02189
30.10000 0.88532 0.02485 0.03628
30.20000 0.81325 -0.05274 -0.03174
30.30000 0.89785 0.05675 0.01685
30.40000 0.85701 0.13393 -0.00839
30.50000 0.86047 0.22233 0.04783
30.60000 0.86004 0.07533 -0.02929
30.70000 0.79037 -0.08236 -0.01255
30.80000 0.90885 -0.18726 -0.01777
30.90000 0.81724 -0.11503 0.01401
31.00000 0.90144 0.12579 0.01135
31.10000 0.82437 0.33770 -0.00252
31.20000 0.83050 0.18760 0.01737
31.30000 0.87164 -0.02114 0.01670
31.40000 0.81023 -0.03253 -0.02611
31.50000 0.93308 -0.08345 0.02679
31.60000 0.80098 0.08385 -0.01017
31.70000 0.81726 0.26677 -0.00099
31.80000 0.86462 0.30051 0.02738
31.90000 0.86030 0.20288 -0.02151
32.00000 0.83646 0.20009 -0.02922
32.10000 0.89912 0.20518 -0.05093
32.20000 0.79208 0.20927 0.03901
32.30000 0.91525 0.11648 -0.01289
32.40000 0.80958 -0.01036 -0.05836
32.50000 0.91418 0.16519 0.02093
32.60000 0.76504 0.13592 -0.00599
32.70000 0.87515 -0.01063 0.03509
32.80000 0.80683 -0.00894 -0.01063
32.90000 0.90445 -0.09498 0.04240
33.00000 0.81843 -0.22753 -0.03250
33.10000 0.89724 -0.19436 -0.03709
33.20000 0.83841 -0.19499 0.08544
33.30000 0.82163 -0.10177 0.01487
33.40000 0.95992 -0.09753 -0.08303
33.50000 0.82314 0.14096 -0.01225
33.60000 0.84269 0.11374 0.00918
33.70000 0.86933 0.23830 -0.06449
33.80000 0.82874 0.25257 -0.01550
33.90000 0.79150 0.08683 0.02385
34.00000 0.86037 -0.15207 0.00680
34.10000 0.87330 -0.12054 -0.00777
34.20000 0.85587 -0.04651 -0.04628
34.30000 0.89986 0.13331 0.06044
34.40000 0.83573 0.10878 0.03043
34.50000 0.83921 0.08660 -0.02106
34.60000 0.84412 0.10381 -0.08880
34.70000 0.83657 0.18231 -0.00762
34.80000 0.87204 0.24597 0.04798
34.90000 0.85139 -0.00241 -0.02457
35.00000 0.86219 -0.09701 -0.01387
35.10000 0.81870 0.00808 0.07902
35.20000 0.81145 0.11224 -0.00315
35.30000 0.93324 0.10368 -0.02749
35.40000 0.80842 -0.16173 0.04215
35.50000 0.86499 -0.34200 -0.01909
35.60000 0.82805 -0.28931 0.01214
35.70000 0.80060 -0.07033 0.02975
35.80000 0.78916 0.13041 -0.01120
35.90000 0.91383 0.14915 0.04319
36.00000 0.77899 0.06642 -0.06255
36.10000 0.87377 0.09436 0.00893
36.20000 0.81971 0.07818 -0.04152
36.30000 0.83656 0.03232 -0.02195
36.40000 0.78556 0.05038 0.00910
36.50000 0.80831 -0.04885 0.00152
36.60000 0.85298 0.00440 0.03059
36.70000 0.83896 0.00724 0.00189
36.80000 0.80040 -0.03035 -0.02243
36.90000 0.86529 -0.14667 0.03905
37.00000 0.85216 -0.20602 0.03691
37.10000 0.82033 0.02085 -0.06123
37.20000 0.88122 0.11897 0.07512
37.30000 0.82908 0.05244 0.01426
37.40000 0.80762 0.00938 -0.02412
37.50000 0.81970 -0.07122 0.03216
37.60000 0.81003 -0.03337 0.00540
37.70000 0.92334 -0.06735 0.01771
37.80000 0.77813 -0.12837 0.01216
37.90000 0.91311 0.02232 -0.02831
38.00000 0.81830 0.11609 -0.00930
38.10000 0.82036 -0.04840 0.01469
38.20000 0.92073 -0.10242 -0.01807
38.30000 0.78983 -0.11188 0.05073
38.40000 0.84105 0.02569 0.01809
38.50000 0.86293 -0.00527 -0.05933
38.60000 0.79286 0.17331 0.00976
38.70000 0.91020 0.36001 0.03544
38.80000 0.82411 0.19161 -0.00465
38.90000 0.87040 0.05421 0.01124
39.00000 0.85401 -0.04596 0.03228
39.10000 0.84432 0.04504 -0.01815
39.20000 0.88136 0.10945 -0.07395
39.30000 0.78874 0.21452 0.01828
39.40000 0.86741 0.16855 0.03579
39.50000 0.82573 0.01151 0.02392
39.60000 0.83793 -0.04211 -0.02220
39.70000 0.86360 -0.05105 -0.03713
39.80000 0.92296 0.21231 0.03819
39.90000 0.84147 0.10036 -0.01856
40.00000 0.88043 -0.11608 0.06235
40.10000 0.81156 -0.00857 -0.01771
40.20000 0.87548 0.09990 0.02220
40.30000 0.80795 0.10321 -0.03092
40.40000 0.87363 0.04681 -0.04917
40.50000 0.89656 -0.19854 -0.02532
40.60000 0.83073 -0.38020 0.02827
40.70000 0.84719 -0.28815 -0.01338
40.80000 0.86244 0.09121 -0.00727
40.90000 0.84078 0.37855 0.01480
41.00000 0.82068 0.24069 0.03244
41.10000 0.86544 0.24822 0.03210
41.20000 0.82888 0.34616 -0.06673
41.30000 0.83145 0.26079 0.03499
41.40000 0.79950 -0.03955 0.01755
41.50000 0.87022 -0.01774 -0.03372
41.60000 0.81407 -0.04382 -0.02695
41.70000 0.87292 -0.06835 0.01279
41.80000 0.79910 0.20253 0.01616
41.90000 0.85458 0.30007 0.00782
42.00000 0.83810 0.22379 0.04304
42.10000 0.87228 -0.03960 0.01799
42.20000 0.87114 -0.24440 0.03742
42.30000 0.79239 -0.28211 -0.06407
42.40000 0.96666 -0.20384 0.03534
42.50000 0.86433 -0.00351 0.01367
42.60000 0.83496 0.11527 0.01669
42.70000 0.82495 0.05460 0.00440
42.80000 0.91471 -0.04542 -0.02912
42.90000 0.77158 0.06445 0.04442
43.00000 0.97117 0.11917 -0.02374
43.10000 0.73273 -0.00162 0.00715
43.20000 0.90716 -0.15136 0.02733
43.30000 0.86120 0.09799 -0.05055
43.40000 0.75911 0.21053 0.01347
43.50000 0.91643 0.24378 0.00325
43.60000 0.79992 0.27241 -0.03429
43.70000 0.82002 0.03012 0.02322
43.80000 0.88984 -0.20200 -0.01864
43.90000 0.80862 -0.15251 -0.00512
44.00000 0.89740 0.21467 -0.03185
44.10000 0.88067 0.21916 -0.02851
44.20000 0.84798 -0.01432 0.03505
44.30000 0.81027 -0.30459 0.00542
44.40000 0.91292 -0.03912 -0.05257
44.50000 0.80455 0.10078 0.01946
44.60000 0.90509 0.00924 0.05294
44.70000 0.78362 -0.10798 0.01135
44.80000 0.85891 -0.02092 -0.05081
44.90000 0.85880 0.02296 0.08746
45.00000 0.84589 -0.01827 -0.02040
45.10000 0.84289 -0.05678 -0.03251
45.20000 0.85307 -0.13686 0.00796
45.30000 0.89396 -0.19987 0.00687
45.40000 0.82357 -0.07224 -0.01257
45.50000 0.88744 0.09259 -0.01603
45.60000 0.81033 0.00478 0.03136
45.70000 0.90636 -0.17750 -0.01145
45.80000 0.83301 -0.21594 0.00882
45.90000 0.85283 -0.22105 -0.02473
46.00000 0.89825 -0.19046 -0.01044
46.10000 0.83810 -0.05049 0.00881
46.20000 0.84487 0.07315 -0.04786
46.30000 0.88263 -0.11059 0.04123
46.40000 0.81436 -0.21787 -0.00518
46.50000 0.88549 -0.08603 -0.04556
46.60000 0.82353 -0.02362 -0.01603
46.70000 0.85685 -0.11247 0.06779
46.80000 0.80090 -0.35306 0.04259
46.90000 0.90531 -0.30910 0.01562
47.00000 0.80934 -0.03777 0.01811
47.10000 0.88944 0.12605 0.00959
47.20000 0.80182 0.14881 -0.00649
47.30000 0.89731 0.02537 0.04042
47.40000 0.79996 -0.12786 -0.03884
47.50000 0.87188 -0.24648 -0.04755
47.60000 0.84783 -0.36517 0.01402
47.70000 0.81592 -0.05177 -0.01090
47.80000 0.85005 0.33584 -0.01889
47.90000 0.89429 0.36628 -0.03334
48.00000 0.79664 0.29998 -0.01606
48.10000 0.91628 0.02448 0.04350
48.20000 0.78408 -0.05726 -0.00344
48.30000 0.87622 -0.11745 0.03359
48.40000 0.81068 0.05352 -0.02553
48.50000 0.88585 0.20893 0.02772
48.60000 0.84119 0.20016 0.00738
48.70000 0.89162 -0.00830 0.01280
48.80000 0.81395 -0.16134 0.06133
48.90000 0.88464 -0.12010 -0.02349
49.00000 0.80904 0.14040 -0.02275
49.10000 0.88489 0.28712 -0.03553
49.20000 0.78561 0.15093 -0.00773
49.30000 0.82362 -0.02766 0.05967
49.40000 0.83726 -0.15645 -0.01134
49.50000 0.79347 -0.27774 -0.03059
49.60000 0.91927 -0.16352 0.03162
49.70000 0.81037 0.00264 0.03306
49.80000 0.88364 0.12584 0.03852
49.90000 0.87623 0.01728 -0.01206
50.00000 0.81304 0.14344 -0.01594
50.10000 0.87679 0.01088 0.01609
50.20000 0.78543 0.08490 0.04905
50.30000 0.88360 0.17543 0.02867
50.40000 0.86037 0.30491 -0.05064
50.50000 0.76990 0.03481 0.04132
50.60000 0.87398 -0.18880 0.00098
50.70000 0.89529 -0.07894 0.00228
50.80000 0.74011 0.09631 -0.03642
50.90000 0.88950 0.30524 0.00607
51.00000 0.81360 0.26503 -0.01356
51.10000 0.82367 -0.21305 0.02949
51.20000 0.86526 -0.32209 -0.05128
51.30000 0.80822 -0.34126 0.05251
51.40000 0.83642 -0.26206 -0.00128
51.50000 0.92862 -0.19169 -0.00408
51.60000 0.84647 0.10554 -0.00313
51.70000 0.85869 0.04592 -0.02354
51.80000 0.80841 -0.07551 -0.00849
51.90000 0.81881 0.10554 0.05323
52.00000 0.83530 0.08144 0.01381
52.10000 0.82278 -0.06758 -0.03236
52.20000 0.82693 -0.01368 0.02438
52.30000 0.87172 0.04305 -0.03075
52.40000 0.82863 0.05975 0.01560
52.50000 0.90671 -0.03792 0.04147
52.60000 0.75511 -0.20916 -0.01852
52.70000 0.94903 -0.05561 -0.05196
52.80000 0.76737 0.09146 0.03582
52.90000 0.92594 0.05995 0.02047
53.00000 0.77635 -0.14761 -0.04847
53.10000 0.89805 -0.18601 0.00024
53.20000 0.86160 -0.12783 0.03048
53.30000 0.83587 -0.03513 -0.01043
53.40000 0.87714 -0.13460 -0.02227
53.50000 0.74052 -0.23985 -0.01298
53.60000 0.90717 -0.24350 0.04847
53.70000 0.81215 -0.04324 0.01550
53.80000 0.85452 -0.17027 -0.01492
53.90000 0.86252 -0.22932 -0.02734
54.00000 0.85195 -0.05205 -0.03709
54.10000 0.76561 0.23758 -0.01769
54.20000 0.92044 0.16105 0.02905
54.30000 0.81386 -0.00109 -0.01055
54.40000 0.86589 -0.05411 0.00705
54.50000 0.87091 -0.16276 -0.03414
54.60000 0.85620 -0.05927 -0.01630
54.70000 0.85818 0.13209 0.02507
54.80000 0.89660 0.14441 0.00320
54.90000 0.76759 -0.05045 0.03215
55.00000 0.88943 -0.21804 -0.04834
55.10000 0.86026 -0.28454 -0.02385
55.20000 0.81457 -0.32082 0.00346
55.30000 0.88451 -0.14854 -0.06387
55.40000 0.80526 0.06544 0.00659
55.50000 0.88133 0.09070 0.04681
55.60000 0.86007 0.03041 0.00083
55.70000 0.80582 0.10439 0.01962
55.80000 0.89527 0.19613 0.00151
55.90000 0.84157 0.16720 0.00950
56.00000 0.84062 0.25234 -0.03652
56.10000 0.88401 0.02679 -0.03053
56.20000 0.75485 -0.20349 0.04963
56.30000 0.94392 -0.13563 0.00998
56.40000 0.78782 0.13922 0.00683
56.50000 0.86535 0.16935 -0.05635
56.60000 0.90721 0.20971 0.04113
56.70000 0.81206 0.08524 -0.03222
56.80000 0.90512 -0.05333 -0.02415
56.90000 0.78216 -0.01043 0.00306
57.00000 0.86910 0.11299 0.02244
57.10000 0.84374 -0.05150 0.02051
57.20000 0.81706 -0.15886 0.05634
57.30000 0.84779 -0.15051 -0.01557
57.40000 0.85053 -0.07702 0.02688
57.50000 0.87436 0.01955 -0.01928
57.60000 0.86347 -0.19714 0.05402
57.70000 0.81348 -0.34342 -0.02640
57.80000 0.87179 -0.36361 0.00140
57.90000 0.77902 -0.08517 -0.01107
58.00000 0.90766 0.09429 0.03732
58.10000 0.88294 0.02915 -0.01957
58.20000 0.82342 -0.05347 -0.02996
58.30000 0.85322 -0.14531 0.05719
58.40000 0.83785 -0.22590 -0.02963
58.50000 0.87913 -0.10826 -0.00543
58.60000 0.75280 0.01187 0.02191
58.70000 0.94623 -0.09964 -0.00526
58.80000 0.82808 -0.11990 -0.00025
58.90000 0.84370 -0.05165 0.03797
59.00000 0.89077 0.09476 0.02208
59.10000 0.82118 0.10687 -0.01466
59.20000 0.89031 -0.10357 -0.00053
59.30000 0.74082 -0.15216 0.05021
59.40000 0.92503 0.09900 0.00236
59.50000 0.73393 0.17314 -0.01980
59.60000 0.91972 -0.03548 0.01344
59.70000 0.79978 -0.08079 0.00918
59.80000 0.86296 0.05207 -0.02647
59.90000 0.85569 -0.10566 0.07914
60.00000 0.88046 -0.09797 -0.00015
60.10000 0.83920 -0.13684 -0.04831
60.20000 0.84979 0.05910 0.03395
60.30000 0.88723 0.24914 -0.04027
60.40000 0.79501 0.09667 -0.04180
60.50000 0.84357 -0.11811 0.02143
60.60000 0.88399 0.02917 0.01860
60.70000 0.82799 0.20832 0.03667
60.80000 0.87234 0.23971 -0.05429
60.90000 0.79565 0.05570 0.01517
61.00000 0.92326 -0.15119 -0.04890
61.10000 0.77194 -0.18980 0.02015
61.20000 0.89850 0.00171 0.05359
61.30000 0.81575 -0.01026 -0.03593
61.40000 0.93298 -0.15050 -0.03454
61.50000 0.79983 -0.28061 -0.00208
61.60000 0.89116 -0.19248 -0.04887
61.70000 0.80065 -0.18688 -0.01302
61.80000 0.86157 0.04067 -0.02779
61.90000 0.79871 0.21439 0.00965
62.00000 0.86631 0.18726 0.03531
62.10000 0.87758 0.00274 -0.04356
62.20000 0.75218 -0.25202 0.02827
62.30000 0.85796 -0.29155 -0.00007
62.40000 0.77926 -0.25517 -0.08368
62.50000 0.81534 -0.06710 0.06248
62.60000 0.85429 0.06258 -0.00125
62.70000 0.84693 0.14851 -0.09176
62.80000 0.83960 0.03118 -0.02239
62.90000 0.83074 -0.04783 0.08466
63.00000 0.86136 -0.21209 0.02590
63.10000 0.76848 -0.17480 -0.06392
63.20000 0.89784 0.00199 0.00951
63.30000 0.83683 0.12942 -0.06568
63.40000 0.90131 0.17089 0.01121
63.50000 0.75819 0.20071 -0.00333
63.60000 0.89611 0.10176 -0.04544
63.70000 0.74341 -0.06856 -0.01049
63.80000 0.85850 -0.01316 0.02944
63.90000 0.85288 0.03888 -0.01967
64.00000 0.82782 0.03765 0.01804
64.10000 0.82382 -0.21220 0.04801
64.20000 0.85926 -0.02732 -0.09024
64.30000 0.82701 0.22134 -0.02818
64.40000 0.84954 0.05986 0.06477
64.50000 0.88361 -0.05468 -0.05748
64.60000 0.83115 0.11564 0.02439
64.70000 0.88157 0.15718 0.01013
64.80000 0.80594 0.33660 -0.04708
64.90000 0.84940 0.37548 -0.00956
65.00000 0.81692 0.25790 0.06536
65.10000 0.83630 0.14922 -0.02273
65.20000 0.85421 0.08424 -0.00858
65.30000 0.85369 0.05928 -0.01620
65.40000 0.84259 0.05583 0.03252
65.50000 0.87835 0.14647 -0.03126
65.60000 0.82907 0.19999 -0.00239
65.70000 0.85734 -0.05555 0.03756
65.80000 0.81081 -0.41293 -0.07340
65.90000 0.84760 -0.55323 0.00070
66.00000 0.84230 -0.50004 -0.01844
66.10000 0.84445 -0.42786 0.01210
66.20000 0.89079 -0.12534 0.06194
66.30000 0.79721 -0.11613 -0.00907
66.40000 0.90292 -0.09837 -0.00320
66.50000 0.85420 -0.14236 -0.00427
66.60000 0.85539 -0.13963 0.00229
66.70000 0.85316 0.08030 0.04646
66.80000 0.86783 0.11679 -0.01644
66.90000 0.82169 0.09438 -0.00169
67.00000 0.97323 0.13370 -0.05101
67.10000 0.75805 -0.05014 -0.00624
67.20000 0.95177 -0.08788 -0.00187
67.30000 0.71098 0.04491 0.06071
67.40000 0.90271 0.11751 0.00937
67.50000 0.84263 0.03512 -0.04072
67.60000 0.77569 0.06026 0.07055
67.70000 0.92511 0.02834 0.01669
67.80000 0.82782 0.17276 0.01415
67.90000 0.89382 0.15441 0.01800
68.00000 0.82648 -0.04544 -0.04755
68.10000 0.89230 0.01265 0.03636
68.20000 0.84709 -0.00561 0.02679
68.30000 0.82885 -0.24016 0.04044
68.40000 0.85878 -0.17587 -0.02776
68.50000 0.88276 0.02393 0.01533
68.60000 0.78797 0.09721 0.02568
68.70000 0.89819 0.12223 -0.00700
68.80000 0.89750 -0.10668 0.01451
68.90000 0.85283 -0.23142 -0.06688
69.00000 0.80978 -0.15872 0.01121
69.10000 0.91331 -0.06568 0.01816
69.20000 0.75985 0.16021 -0.00765
69.30000 0.93876 0.03075 -0.09734
69.40000 0.78974 0.10519 0.00858
69.50000 0.84858 0.14177 0.04764
69.60000 0.86837 -0.04272 -0.01918
69.70000 0.83415 0.21390 0.00243
69.80000 0.86422 0.16271 0.01979
69.90000 0.83649 0.03450 0.00494
70.00000 0.94881 0.01805 0.05463
70.10000 0.79491 -0.14394 0.02772
70.20000 0.92966 -0.23294 -0.07562
70.30000 0.79095 -0.10493 -0.01321
70.40000 0.91540 -0.06677 -0.00981
70.50000 0.84346 -0.02047 0.03524
70.60000 0.81505 -0.11075 -0.00031
70.70000 0.87598 -0.16942 0.01589
70.80000 0.79955 -0.08998 0.00068
70.90000 0.89974 -0.04787 0.10672
71.00000 0.77179 0.16798 0.03554
71.10000 0.84674 0.13519 -0.02906
71.20000 0.89974 -0.09024 0.02272
71.30000 0.79582 -0.34023 -0.02379
71.40000 0.87705 -0.31314 0.03078
71.50000 0.80768 -0.19455 -0.03269
71.60000 0.82324 0.02109 -0.04292
71.70000 0.84221 0.19526 -0.01061
71.80000 0.87651 0.11714 0.01543
71.90000 0.87493 0.20297 0.02008
72.00000 0.84540 0.16958 0.01408
72.10000 0.80826 0.04757 0.00159
72.20000 0.85518 0.00259 0.01168
72.30000 0.86821 0.10132 -0.06380
72.40000 0.80094 -0.05153 0.00299
72.50000 0.81677 -0.11520 -0.00237
72.60000 0.82003 0.19633 -0.01061
72.70000 0.83547 0.36465 0.02208
72.80000 0.87116 0.10927 0.05662
72.90000 0.83520 -0.15393 0.01082
73.00000 0.81260 -0.30584 0.00217
73.10000 0.79004 -0.32016 0.03001
73.20000 0.87196 -0.11639 0.04322
73.30000 0.84053 0.00247 -0.02431
73.40000 0.80407 -0.13485 0.00875
73.50000 0.85965 -0.10980 -0.02714
73.60000 0.82251 -0.02367 0.01895
73.70000 0.88270 0.09213 -0.00696
73.80000 0.79950 0.13098 0.00271
73.90000 0.85077 0.23028 -0.01593
74.00000 0.82487 0.06870 0.02715
74.10000 0.93444 0.02214 0.04706
74.20000 0.78521 0.19876 -0.08355
74.30000 0.86604 0.20874 0.03707
74.40000 0.83140 -0.00007 0.05187
74.50000 0.82676 -0.12480 0.02908
74.60000 0.77263 -0.12194 -0.06492
74.70000 0.92946 -0.21252 0.04258
74.80000 0.77717 -0.14290 0.01431
74.90000 0.87713 0.02455 -0.04175
75.00000 0.85914 0.00159 0.01826
75.10000 0.83380 -0.07609 0.01679
75.20000 0.84899 -0.09889 -0.02070
75.30000 0.82236 0.00816 0.06400
75.40000 0.80984 0.02716 -0.02018
75.50000 0.90153 -0.10388 -0.06860
75.60000 0.77310 0.03062 -0.02361
75.70000 0.87063 0.11859 0.02167
75.80000 0.81952 0.18965 -0.00356
75.90000 0.92333 0.15328 -0.02064
76.00000 0.77585 0.18190 0.01398
76.10000 0.88547 -0.08755 -0.00512
76.20000 0.85821 -0.09554 -0.02954
76.30000 0.83762 -0.12249 -0.03685
76.40000 0.80754 -0.13200 -0.00150
76.50000 0.91842 -0.04234 -0.00215
76.60000 0.83064 -0.01070 -0.01667
76.70000 0.86923 -0.08854 0.03311
76.80000 0.81131 0.02756 -0.01833
76.90000 0.83604 0.24726 0.05854
77.00000 0.85392 0.44091 0.02978
77.10000 0.82551 0.26090 0.00612
77.20000 0.86822 0.12380 -0.05176
77.30000 0.80735 0.06296 -0.00584
77.40000 0.82579 0.09489 0.01637
77.50000 0.89053 0.00832 0.03934
77.60000 0.84354 -0.05306 0.00518
77.70000 0.81516 0.16991 -0.01464
77.80000 0.93691 0.09754 -0.00521
77.90000 0.72357 -0.04151 -0.00169
78.00000 0.95333 -0.13369 -0.01137
78.10000 0.81956 -0.01657 0.01602
78.20000 0.86049 0.16725 -0.01505
78.30000 0.87361 0.04187 -0.03585
78.40000 0.86794 -0.11403 -0.01212
78.50000 0.85237 -0.05610 0.00390
78.60000 0.88176 0.00567 0.02665
78.70000 0.83882 0.04651 -0.01840
78.80000 0.77412 0.13539 -0.05526
78.90000 0.88423 0.14069 0.07023
79.00000 0.77837 0.07062 -0.01088
79.10000 0.92595 -0.12877 0.02051
79.20000 0.83622 -0.14586 0.02846
79.30000 0.82729 -0.22850 -0.00129
79.40000 0.92852 -0.15802 -0.02814
79.50000 0.86414 -0.02340 -0.00802
79.60000 0.91712 0.03335 0.00361
79.70000 0.80868 -0.15343 0.05244
79.80000 0.92157 -0.15293 0.02939
79.90000 0.82087 -0.12840 -0.03928
80.00000 0.86379 -0.21744 -0.02169
80.10000 0.80226 -0.11267 0.01354
80.20000 0.87014 -0.09175 0.04016
80.30000 0.76781 0.03129 -0.00304
80.40000 0.87595 0.11118 -0.02292
80.50000 0.87419 -0.05612 -0.03913
80.60000 0.79584 -0.17617 -0.01040
80.70000 0.87713 -0.11530 0.04043
80.80000 0.82870 0.12589 0.03938
80.90000 0.83304 0.20025 -0.02513
81.00000 0.81713 0.14045 -0.00864
81.10000 0.81314 0.16297 -0.03516
81.20000 0.79750 0.01805 0.04900
81.30000 0.84555 -0.14032 -0.01347
81.40000 0.89155 -0.03873 0.01882
81.50000 0.79679 -0.05193 0.02555
81.60000 0.83518 -0.02288 -0.02472
81.70000 0.93181 0.07232 -0.03418
81.80000 0.76766 0.09891 -0.02293
81.90000 0.93268 0.04364 0.03609
82.00000 0.78403 0.04969 0.04052
82.10000 0.84574 0.15596 -0.04733
82.20000 0.90074 0.21559 -0.00430
82.30000 0.81875 0.07156 0.04051
82.40000 0.83297 0.07755 -0.02091
82.50000 0.88583 0.09890 -0.04190
82.60000 0.80791 0.05026 0.01883
82.70000 0.88097 -0.18864 0.02739
82.80000 0.88316 -0.22444 0.01009
82.90000 0.79862 0.04552 -0.01215
83.00000 0.88112 0.24657 0.00666
83.10000 0.80807 0.18606 -0.02925
83.20000 0.89278 -0.14977 0.01994
83.30000 0.79400 -0.27682 -0.05040
83.40000 0.89556 -0.13630 0.02477
83.50000 0.80141 -0.12008 0.01642
83.60000 0.83162 -0.18158 -0.00143
83.70000 0.83951 -0.12954 -0.01199
83.80000 0.78044 -0.12381 -0.00637
83.90000 0.91165 -0.06505 -0.01368
84.00000 0.74325 0.09125 0.00787
84.10000 0.95463 0.38740 0.01981
84.20000 0.75090 0.39731 -0.06215
84.30000 0.90175 0.19052 -0.01318
84.40000 0.84471 -0.12050 -0.02107
84.50000 0.85369 -0.11794 -0.00457
84.60000 0.87564 -0.02359 0.00210
84.70000 0.82344 0.05604 -0.00735
84.80000 0.89513 -0.00472 0.05733
84.90000 0.78827 0.04130 -0.00112
85.00000 0.93719 0.01974 -0.03400
85.10000 0.80238 0.14489 0.00773
85.20000 0.87533 0.26344 0.02452
85.30000 0.87361 0.30097 0.03353
85.40000 0.79287 0.35363 -0.03665
85.50000 0.88793 0.31702 0.01743
85.60000 0.81696 -0.02589 -0.02317
85.70000 0.90677 -0.26071 -0.02585
85.80000 0.79650 -0.08626 0.02660
85.90000 0.82765 0.02006 -0.06157
86.00000 0.84953 -0.18128 0.04251
86.10000 0.81939 -0.20893 0.07986
86.20000 0.85008 -0.21425 -0.07106
86.30000 0.87589 -0.31077 -0.00890
86.40000 0.87279 -0.40858 0.07717
86.50000 0.82559 -0.28628 0.02513
86.60000 0.85645 0.14234 0.04551
86.70000 0.83147 0.07420 -0.07263
86.80000 0.85391 -0.00965 -0.01050
86.90000 0.82935 0.05722 0.00885
87.00000 0.81635 0.08504 0.01070
87.10000 0.91257 0.11591 0.00654
87.20000 0.76628 -0.16662 0.01861
87.30000 0.91387 -0.19394 -0.00485
87.40000 0.79048 0.08676 0.05793
87.50000 0.86456 0.14479 0.01501
87.60000 0.86544 0.07318 -0.04542
87.70000 0.75630 -0.04577 0.04442
87.80000 0.94237 -0.15526 0.02640
87.90000 0.77965 -0.17820 0.00318
88.00000 0.85268 -0.11441 -0.01376
88.10000 0.82474 -0.13604 0.03526
88.20000 0.88437 -0.18265 -0.04144
88.30000 0.80033 -0.13061 -0.09763
88.40000 0.85210 0.06482 0.02568
88.50000 0.90767 -0.07667 0.10827
88.60000 0.83955 0.04041 -0.06669
88.70000 0.87510 0.04068 0.01767
88.80000 0.79463 -0.00849 -0.00762
88.90000 0.91545 0.22402 0.06475
89.00000 0.79942 0.25643 -0.02874
89.10000 0.82822 0.09962 0.02158
89.20000 0.86112 0.26116 -0.02058
89.30000 0.80503 0.31275 -0.03052
89.40000 0.90142 0.06495 0.00148
89.50000 0.87416 0.07406 -0.03007
89.60000 0.84694 0.01976 0.02853
89.70000 0.89389 0.00377 0.03256
89.80000 0.85165 0.07969 -0.01151
89.90000 0.88144 0.14224 -0.00208
90.00000 0.80285 0.06442 0.00712
90.10000 0.95731 0.28199 0.00808
90.20000 0.76526 0.31534 0.00127
90.30000 0.88949 0.22529 -0.01717
90.40000 0.91174 0.25444 -0.00899
90.50000 0.82502 0.17498 0.00060
90.60000 0.88494 0.01173 0.02631
90.70000 0.86351 -0.07863 0.00257
90.80000 0.76417 -0.02207 -0.00202
90.90000 0.87421 -0.03713 0.04589
91.00000 0.86170 0.09192 -0.03005
91.10000 0.84507 0.05740 -0.01341
91.20000 0.93350 0.06142 0.00393
91.30000 0.78247 0.12126 0.04096
91.40000 0.86192 0.09193 -0.00594
91.50000 0.87179 -0.03812 -0.03316
91.60000 0.83328 -0.02978 -0.02020
91.70000 0.94645 0.01054 -0.01614
91.80000 0.77014 -0.00936 0.08005
91.90000 0.89716 -0.10384 -0.01714
92.00000 0.85233 0.12518 0.02032
92.10000 0.85405 0.05467 0.10776
92.20000 0.86156 0.03842 -0.01961
92.30000 0.84510 0.24969 0.00822
92.40000 0.86063 0.10068 0.05983
92.50000 0.86780 -0.01516 -0.00210
92.60000 0.80315 -0.20785 -0.06911
92.70000 0.86778 -0.23319 0.03199
92.80000 0.80864 -0.14161 0.00822
92.90000 0.83502 -0.06686 0.01924
93.00000 0.83227 -0.12558 -0.03104
93.10000 0.90577 -0.07795 0.04313
93.20000 0.79942 -0.01444 -0.04405
93.30000 0.92937 0.04281 -0.04754
93.40000 0.78994 -0.01310 0.04803
93.50000 0.87960 -0.04158 -0.02614
93.60000 0.83492 0.06806 0.00500
93.70000 0.88543 0.17530 -0.01187
93.80000 0.84743 0.23404 -0.03578
93.90000 0.83361 0.28257 0.04718
94.00000 0.84014 0.07711 -0.02872
94.10000 0.89589 -0.11317 -0.02380
94.20000 0.76784 -0.04151 0.03313
94.30000 0.91451 0.10187 0.00301
94.40000 0.88663 0.09809 -0.02281
94.50000 0.82123 -0.10160 0.06349
94.60000 0.90477 -0.05970 -0.03397
94.70000 0.76554 0.01054 0.01183
94.80000 0.94366 0.01601 -0.01012
94.90000 0.77041 0.07400 0.03607
95.00000 0.87225 0.18830 0.00276
95.10000 0.80705 0.11489 -0.03442
95.20000 0.89811 0.18410 -0.00663
95.30000 0.83094 0.17900 -0.01167
95.40000 0.74000 0.13602 -0.02276
95.50000 0.92115 0.05019 0.04187
95.60000 0.87221 -0.05599 0.00384
95.70000 0.75497 -0.31947 -0.03301
95.80000 0.87604 -0.30872 0.03693
95.90000 0.78404 -0.13809 -0.01303
96.00000 0.76161 -0.00535 0.04801
96.10000 0.89647 0.07286 0.02605
96.20000 0.91404 -0.12388 0.02122
96.30000 0.77673 -0.15020 0.04366
96.40000 0.93001 -0.06100 -0.04202
96.50000 0.85135 -0.02978 -0.03739
96.60000 0.83068 0.07299 0.03912
96.70000 0.80475 0.13492 -0.05266
96.80000 0.82925 0.11390 -0.01254
96.90000 0.86608 0.05216 0.04587
97.00000 0.80505 0.14643 -0.06379
97.10000 0.84352 0.09895 0.02389
97.20000 0.90111 -0.02848 -0.04532
97.30000 0.86671 -0.22858 0.00769
97.40000 0.83246 -0.12339 0.03496
97.50000 0.84243 -0.08549 -0.01383
97.60000 0.79445 0.08810 -0.03080
97.70000 0.88060 0.13813 -0.01920
97.80000 0.86484 0.24342 0.00059
97.90000 0.80908 0.08542 -0.03291
98.00000 0.79669 -0.06521 -0.01330
98.10000 0.84402 -0.01006 0.02839
98.20000 0.87491 0.03830 0.00147
98.30000 0.83503 -0.05396 -0.02338
98.40000 0.84828 -0.11913 -0.04035
98.50000 0.84995 -0.06074 0.04979
98.60000 0.73692 0.02141 -0.04402
98.70000 0.88426 0.11053 -0.00849
98.80000 0.78023 0.20604 0.01828
98.90000 0.90273 0.23872 -0.04832
99.00000 0.82601 0.03156 -0.05129
99.10000 0.83857 -0.05091 0.00663
99.20000 0.86072 0.01173 0.01069
99.30000 0.87303 -0.00274 -0.05903
99.40000 0.85100 0.18459 0.01620
99.50000 0.87472 0.10926 0.00431
99.60000 0.87536 -0.05692 -0.02943
99.70000 0.84828 -0.06389 0.04071
99.80000 0.86019 -0.14248 -0.02090
99.90000 0.83662 -0.04613 0.03616
100.00000 0.85508 0.10133 -0.01182
100.10000 0.81485 0.18906 0.06828
100.20000 0.94729 0.17685 0.04412
100.30000 0.82945 0.27107 -0.04950
100.40000 0.83132 0.19632 0.00400
100.50000 0.88134 0.11888 0.01972
100.60000 0.86673 -0.13451 -0.03534
100.70000 0.82884 -0.17720 -0.02311
100.80000 0.90439 0.07866 -0.00162
100.90000 0.83897 0.09772 0.03947
101.00000 0.84628 -0.04366 -0.00766
101.10000 0.87886 -0.21840 0.01877
101.20000 0.78676 -0.13923 -0.04706
101.30000 0.93223 0.13173 0.05715
101.40000 0.82335 0.21890 0.03426
101.50000 0.80747 0.13720 -0.04661
101.60000 0.92483 -0.09003 -0.07526
101.70000 0.83776 -0.13857 0.03356
101.80000 0.84089 -0.24373 0.10855
101.90000 0.89118 -0.17016 -0.05217
102.00000 0.84152 -0.14687 0.01161
102.10000 0.87893 -0.24837 -0.02463
102.20000 0.83367 -0.10560 -0.01455
102.30000 0.83158 -0.10050 0.05894
102.40000 0.77846 -0.20478 -0.05042
102.50000 0.84431 -0.16998 0.03976
102.60000 0.84755 -0.05749 -0.04228
102.70000 0.86494 0.12898 -0.06850
102.80000 0.86550 0.16560 0.00254
102.90000 0.83660 0.03608 -0.01096
103.00000 0.85590 -0.05957 -0.01153
103.10000 0.79171 -0.16767 0.05686
103.20000 0.86639 -0.22417 -0.01105
103.30000 0.78094 -0.01849 -0.02291
103.40000 0.89805 0.16160 -0.00169
103.50000 0.74949 -0.02379 0.03473
103.60000 0.96742 -0.10654 -0.04684
103.70000 0.70993 -0.02038 -0.06831
103.80000 0.95926 -0.07077 0.06561
103.90000 0.76696 -0.13997 -0.01210
104.00000 0.93499 -0.02368 0.03561
104.10000 0.75348 -0.14541 -0.01968
104.20000 0.89657 -0.38165 0.00775
104.30000 0.82918 -0.34624 0.02358
104.40000 0.89347 -0.07946 -0.03293
104.50000 0.83689 -0.07066 -0.00635
104.60000 0.88080 -0.23051 0.05312
104.70000 0.84887 -0.13504 0.00071
104.80000 0.80061 -0.05993 -0.05685
104.90000 0.88257 -0.11024 0.03204
105.00000 0.79402 -0.20319 -0.00991
105.10000 0.89030 -0.06747 0.00013
105.20000 0.88894 0.08201 0.03592
105.30000 0.80591 0.08828 -0.02386
105.40000 0.87415 -0.08876 0.00054
105.50000 0.85604 -0.26350 0.06748
105.60000 0.84713 -0.15919 -0.06694
105.70000 0.85990 0.04985 -0.03552
105.80000 0.84793 0.19004 0.02170
105.90000 0.77712 0.21785 0.07695
106.00000 0.92645 0.31510 -0.03486
106.10000 0.80063 -0.02288 -0.05167
106.20000 0.85262 -0.04681 0.07363
106.30000 0.82430 -0.11780 0.00599
106.40000 0.81957 -0.11166 -0.06972
106.50000 0.83004 0.03620 0.00478
106.60000 0.85000 0.08412 -0.00953
106.70000 0.87994 0.01652 0.01346
106.80000 0.83516 -0.00725 -0.03866
106.90000 0.93123 0.04710 -0.02442
107.00000 0.71359 0.03760 0.03731
107.10000 0.92139 -0.10138 -0.00110
107.20000 0.75854 -0.14131 0.01171
107.30000 0.95588 -0.06501 0.00396
107.40000 0.74116 0.06315 -0.00917
107.50000 0.89679 0.35503 -0.00157
107.60000 0.82570 0.36423 -0.01213
107.70000 0.85404 0.05347 0.05659
107.80000 0.80329 0.07105 0.03331
107.90000 0.85986 -0.04772 -0.07236
108.00000 0.76762 -0.10806 -0.00464
108.10000 0.90453 0.11748 0.03719
108.20000 0.77230 0.19260 0.03170
108.30000 0.89202 -0.04762 -0.02957
108.40000 0.87355 -0.12435 -0.01037
108.50000 0.79734 -0.10617 -0.01513
108.60000 0.91740 -0.16181 0.04028
108.70000 0.81463 0.10816 0.01790
108.80000 0.88019 0.31814 -0.06047
108.90000 0.81899 0.31159 0.03428
109.00000 0.86616 0.16251 -0.01110
109.10000 0.80920 0.03526 -0.00648
109.20000 0.86561 0.17989 0.00469
109.30000 0.79219 0.16595 -0.02987
109.40000 0.89199 0.14118 0.00400
109.50000 0.79470 0.15623 0.03277
109.60000 0.87403 0.04842 0.01056
109.70000 0.79263 0.09157 -0.02476
109.80000 0.86640 0.19328 -0.00398
109.90000 0.85563 0.06588 0.05618
110.00000 0.87244 -0.12142 -0.00785
110.10000 0.85090 -0.26179 0.04268
110.20000 0.84030 -0.31805 -0.02937
110.30000 0.84121 -0.21895 -0.03414
110.40000 0.84285 -0.08252 -0.00852
110.50000 0.87816 0.06944 -0.04780
110.60000 0.87416 0.22689 0.00171
110.70000 0.80835 0.22666 0.02189
110.80000 0.85469 0.16793 -0.03650
110.90000 0.88234 0.07317 0.01256
111.00000 0.79704 0.05373 0.00533
111.10000 0.84980 -0.06597 -0.00572
111.20000 0.83353 -0.06354 -0.03004
111.30000 0.85243 0.10098 0.05134
111.40000 0.82118 0.16856 0.04748
111.50000 0.89468 -0.04722 -0.02947
111.60000 0.87093 -0.28371 -0.03020
111.70000 0.78076 -0.23689 0.04665
111.80000 0.89577 -0.11445 0.01102
111.90000 0.76007 0.11026 -0.01898
112.00000 0.90769 0.18988 0.00901
112.10000 0.83497 0.33967 0.00573
112.20000 0.76928 0.33943 0.03005
112.30000 0.89589 0.29526 -0.03783
112.40000 0.83783 0.13529 -0.06961
112.50000 0.81305 -0.00800 0.02071
112.60000 0.88870 0.07343 0.00771
112.70000 0.80967 -0.00210 -0.05136
112.80000 0.87635 -0.21035 -0.01134
112.90000 0.83898 -0.20714 0.08132
113.00000 0.83438 0.00960 -0.01728
113.10000 0.84485 0.25256 -0.01267
113.20000 0.85597 0.08251 0.02055
113.30000 0.89210 0.05992 -0.07455
113.40000 0.79927 0.10886 0.01253
113.50000 0.79013 0.10997 -0.03341
113.60000 0.83637 0.12627 -0.00697
113.70000 0.83331 0.10942 0.02794
113.80000 0.81702 -0.12694 -0.04142
113.90000 0.82070 -0.24849 -0.06320
114.00000 0.78846 -0.10223 0.01487
114.10000 0.80486 0.25272 0.06006
114.20000 0.86329 0.16247 0.05998
114.30000 0.87810 0.04633 0.00460
114.40000 0.83763 -0.03450 -0.03145
114.50000 0.90445 0.07167 -0.01474
114.60000 0.75771 0.11740 -0.05240
114.70000 0.89358 -0.01399 0.06630
114.80000 0.81381 -0.10364 0.00432
114.90000 0.84996 -0.15896 -0.03910
115.00000 0.83768 -0.10796 -0.01462
115.10000 0.91220 -0.12666 -0.02873
115.20000 0.77579 -0.00216 0.02014
115.30000 0.87406 -0.07358 0.00442
115.40000 0.81282 -0.08961 -0.03171
115.50000 0.85957 -0.31280 0.02075
115.60000 0.85287 -0.17686 -0.01805
115.70000 0.81236 0.05282 -0.04027
115.80000 0.86190 0.17663 0.05543
115.90000 0.79832 0.09772 0.01822
116.00000 0.89189 -0.09364 -0.00521
116.10000 0.87192 -0.12023 0.03202
116.20000 0.86723 -0.03911 -0.00583
116.30000 0.83423 -0.12361 -0.00472
116.40000 0.80686 -0.19341 0.03331
116.50000 0.85810 -0.14155 -0.01406
116.60000 0.84582 -0.24635 0.01503
116.70000 0.83923 -0.36191 -0.03077
116.80000 0.88929 -0.31838 -0.00313
116.90000 0.79929 0.04947 0.02897
117.00000 0.78675 0.27409 -0.01580
117.10000 0.86227 0.09607 -0.04676
117.20000 0.81807 0.03776 0.02652
117.30000 0.83278 0.12835 -0.00549
117.40000 0.79826 0.22944 -0.01291
117.50000 0.95991 0.27838 -0.06193
117.60000 0.75022 0.12734 0.02244
117.70000 0.92681 -0.04013 0.00803
117.80000 0.79679 -0.11966 -0.01614
117.90000 0.91485 -0.14993 -0.00717
118.00000 0.76638 -0.26341 -0.02330
118.10000 0.80331 -0.31538 -0.04031
118.20000 0.91765 -0.14807 -0.06656
118.30000 0.78136 -0.02604 -0.00102
118.40000 0.92604 0.03491 0.08847
118.50000 0.81996 0.09576 -0.10370
118.60000 0.86037 0.11746 0.02854
118.70000 0.83679 0.01115 0.01502
118.80000 0.84166 -0.07829 -0.02432
118.90000 0.81139 0.03510 -0.00915
119.00000 0.89362 0.05227 0.03072
119.10000 0.80197 -0.10089 -0.02883
119.20000 0.83625 -0.22107 -0.03255
119.30000 0.86593 -0.18465 0.05234
119.40000 0.82843 0.00987 0.03351
119.50000 0.85190 0.03864 -0.05630
119.60000 0.87788 0.15287 -0.03711
119.70000 0.77604 0.19328 0.06365
119.80000 0.89619 0.00699 0.01576
119.90000 0.78379 -0.05003 -0.03974
120.00000 0.92870 -0.08828 0.02163
120.10000 0.80613 -0.00920 0.00886
120.20000 0.86356 0.04816 0.04293
120.30000 0.83433 -0.02988 -0.05510
120.40000 0.82051 -0.13940 0.02872
120.50000 0.89371 -0.20909 0.09322
120.60000 0.78514 -0.11035 -0.08004
120.70000 0.89729 -0.07470 -0.01922
120.80000 0.83288 -0.02383 0.04309
120.90000 0.85407 0.07213 0.00116
121.00000 0.81789 0.05877 0.05758
121.10000 0.81526 0.07800 -0.03606
121.20000 0.83403 -0.01793 0.01996
121.30000 0.77073 -0.19803 0.03080
121.40000 0.87580 -0.20635 -0.01919
121.50000 0.87299 -0.15132 -0.04575
121.60000 0.84796 0.00126 -0.03596
121.70000 0.83391 -0.03189 0.04734
121.80000 0.91126 -0.10800 -0.01062
121.90000 0.84800 -0.13459 -0.00430
122.00000 0.81406 -0.23744 -0.02514
122.10000 0.89787 -0.18210 0.02084
122.20000 0.83281 -0.16104 0.08067
122.30000 0.86819 0.06792 -0.00500
122.40000 0.84502 0.25345 -0.03097
122.50000 0.80953 0.15495 -0.00492
122.60000 0.86208 0.04792 0.03962
122.70000 0.85201 0.02692 0.02257
122.80000 0.85221 -0.01452 -0.03868
122.90000 0.89688 0.09562 0.01280
123.00000 0.79467 0.05541 -0.00596
123.10000 0.83951 0.04610 -0.01437
123.20000 0.91761 -0.00734 -0.00683
123.30000 0.81300 -0.00799 0.01708
123.40000 0.87881 -0.05511 0.02391
123.50000 0.85287 0.01921 0.01455
123.60000 0.86399 -0.02698 -0.09736
123.70000 0.83005 -0.13858 0.05241
123.80000 0.87145 -0.16227 0.01996
123.90000 0.82183 -0.17004 -0.02500
124.00000 0.88407 -0.17593 -0.07434
124.10000 0.85589 -0.00549 0.00857
124.20000 0.81634 0.10174 0.03921
124.30000 0.90607 0.03168 -0.00398
124.40000 0.80226 -0.04601 -0.02639
124.50000 0.86895 -0.00552 0.00637
124.60000 0.87399 0.05554 0.00029
124.70000 0.82289 0.06618 -0.04791
124.80000 0.80421 0.06170 0.00698
124.90000 0.88275 0.16927 -0.00185
125.00000 0.91918 0.08944 -0.03360
125.10000 0.76128 -0.15009 -0.05247
125.20000 0.90053 -0.26918 -0.00556
125.30000 0.84985 -0.11804 0.04362
125.40000 0.89636 0.03821 -0.06402
125.50000 0.85859 -0.09377 -0.07893
125.60000 0.86994 -0.29935 0.00634
125.70000 0.81070 -0.30676 0.03012
125.80000 0.82053 -0.23877 0.00827
125.90000 0.84739 -0.17061 -0.01807
126.00000 0.85909 -0.01714 -0.00910
126.10000 0.87737 0.02223 0.00096
126.20000 0.83530 0.11421 -0.01223
126.30000 0.81756 0.22076 -0.00796
126.40000 0.88832 0.30060 -0.03822
126.50000 0.84286 0.05213 -0.03985
126.60000 0.80924 -0.17503 -0.01717
126.70000 0.85693 -0.14854 0.00065
126.80000 0.85552 0.09451 -0.00592
126.90000 0.85451 0.09932 -0.00277
127.00000 0.82777 0.09387 -0.00185
127.10000 0.85850 0.06356 0.07318
127.20000 0.77930 0.12497 -0.08141
127.30000 0.86012 0.09200 -0.00968
127.40000 0.85705 0.00663 0.03481
127.50000 0.89784 -0.01053 -0.06941
127.60000 0.81529 -0.01882 0.00230
127.70000 0.88046 -0.07730 0.01497
127.80000 0.81772 -0.14564 -0.05834
127.90000 0.89593 -0.03561 -0.00740
128.00000 0.77113 0.01265 -0.01008
128.10000 0.91095 0.23100 -0.01618
128.20000 0.77447 0.27077 -0.01051
128.30000 0.87537 0.14432 0.01982
128.40000 0.78696 -0.12804 0.01127
128.50000 0.89633 -0.31910 -0.02952
128.60000 0.83380 -0.32947 -0.01172
128.70000 0.82402 -0.11842 0.00347
128.80000 0.87661 -0.02600 0.01373
128.90000 0.81557 0.17055 0.03810
129.00000 0.82554 0.08384 0.00373
129.10000 0.88871 -0.10185 -0.03983
129.20000 0.83062 -0.06601 0.04561
129.30000 0.84654 -0.14176 0.01888
129.40000 0.95212 -0.14136 -0.01334
129.50000 0.83599 -0.01390 -0.01120
129.60000 0.93821 0.08843 0.00178
129.70000 0.79937 0.01655 0.04927
129.80000 0.83174 -0.04213 0.00854
129.90000 0.85138 -0.08761 -0.04346
130.00000 0.83505 -0.20685 0.02498
130.10000 0.87442 -0.05574 0.02800
130.20000 0.78720 0.01124 -0.02376
130.30000 0.91799 -0.06713 0.02906
130.40000 0.85366 -0.04582 -0.01791
130.50000 0.87963 -0.08464 -0.03983
130.60000 0.73479 -0.01684 0.07886
130.70000 0.92282 0.10354 -0.01011
130.80000 0.86785 0.00682 -0.02260
130.90000 0.85400 0.07018 -0.01844
131.00000 0.86362 0.12032 0.05169
131.10000 0.84428 0.03195 0.04758
131.20000 0.79591 0.03750 -0.03825
131.30000 0.81858 0.00909 -0.03229
131.40000 0.82776 -0.03952 0.03597
131.50000 0.84409 0.13122 -0.02282
131.60000 0.81937 0.17767 0.06871
131.70000 0.83325 -0.01757 -0.00726
131.80000 0.85907 -0.14455 -0.00946
131.90000 0.89305 -0.11226 0.08348
132.00000 0.82647 -0.01857 -0.01396
132.10000 0.76982 -0.02128 -0.02673
132.20000 0.94509 -0.01736 -0.01998
132.30000 0.77453 -0.06970 -0.00540
132.40000 0.86069 -0.05111 -0.00963
132.50000 0.85383 0.15613 -0.01739
132.60000 0.83096 0.16733 -0.02115
132.70000 0.80661 0.01982 0.08640
132.80000 0.85947 0.09900 0.03852
132.90000 0.83763 0.16114 0.00576
133.00000 0.88393 0.00313 -0.06373
133.10000 0.89973 0.08618 0.02771
133.20000 0.85887 0.18318 0.06299
133.30000 0.78015 0.24655 -0.00796
133.40000 0.89361 0.14385 0.01668
133.50000 0.87817 -0.05429 -0.03556
133.60000 0.86743 -0.20863 0.08658
133.70000 0.78149 -0.21013 0.03610
133.80000 0.88288 0.01593 -0.04055
133.90000 0.80713 0.03907 0.04143
134.00000 0.86101 -0.00800 0.03124
134.10000 0.82672 0.04038 -0.02922
134.20000 0.86500 0.11870 0.04881
134.30000 0.89925 0.04338 -0.01168
134.40000 0.80291 -0.09812 0.04960
134.50000 0.82359 0.01077 -0.04830
134.60000 0.89647 0.12406 0.01633
134.70000 0.80599 0.22166 0.03076
134.80000 0.89106 0.12767 -0.01650
134.90000 0.90858 0.10046 -0.00230
135.00000 0.77088 0.20822 -0.04863
135.10000 0.84256 0.15046 0.02602
135.20000 0.82713 -0.12502 0.07850
135.30000 0.78476 -0.15205 -0.04589
135.40000 0.85656 -0.14381 -0.08121
135.50000 0.88258 -0.10784 0.02616
135.60000 0.83328 -0.09242 0.00019
135.70000 0.85322 -0.07182 0.02015
135.80000 0.86474 -0.06475 0.00620
135.90000 0.83370 0.10387 -0.04747
136.00000 0.90984 0.16647 0.00353
136.10000 0.79165 0.05803 0.04480
136.20000 0.91519 0.04360 -0.02940
136.30000 0.77049 0.15554 -0.03790
136.40000 0.88182 0.27815 -0.01647
136.50000 0.87870 0.05657 0.02182
136.60000 0.82870 0.07547 0.01573
136.70000 0.86494 -0.01163 -0.06274
136.80000 0.77548 0.07953 0.00837
136.90000 0.86366 0.10208 0.04516
137.00000 0.79241 -0.11280 -0.03482
137.10000 0.96554 -0.21444 -0.00645
137.20000 0.81015 -0.05779 0.02303
137.30000 0.92141 0.11194 0.01045
137.40000 0.81437 0.06753 -0.02997
137.50000 0.90304 -0.06665 0.01815
137.60000 0.75136 0.03614 0.02407
137.70000 0.95480 0.14909 -0.00870
137.80000 0.80036 0.16444 0.04751
137.90000 0.88667 0.09164 -0.02962
138.00000 0.83646 0.04136 0.00644
138.10000 0.88421 0.09658 -0.01265
138.20000 0.83898 0.24159 -0.07583
138.30000 0.86936 0.15225 0.02360
138.40000 0.89166 0.05932 0.01567
138.50000 0.78182 0.00888 -0.00613
138.60000 0.82604 -0.04525 0.05612
138.70000 0.85985 -0.09737 0.00902
138.80000 0.79085 -0.08212 -0.02212
138.90000 0.80733 0.09667 0.00395
139.00000 0.87422 0.24301 0.06551
139.10000 0.82787 0.17195 -0.04615
139.20000 0.87611 -0.00297 0.00782
139.30000 0.81548 0.05264 0.00478
139.40000 0.88950 0.22578 0.01552
139.50000 0.80985 0.24871 -0.02225
139.60000 0.80607 0.23013 0.00234
139.70000 0.88559 0.35775 0.01006
139.80000 0.81164 0.51981 -0.01100
139.90000 0.84959 0.55091 -0.04958
140.00000 0.85883 0.36120 0.01981
140.10000 0.82455 0.19808 0.05476
140.20000 0.87631 0.17505 -0.02057
140.30000 0.78078 0.18699 -0.02232
140.40000 0.86775 0.12408 0.09190
140.50000 0.85103 0.26027 -0.01005
140.60000 0.89532 0.17978 -0.06012
140.70000 0.84723 0.03611 0.02643
140.80000 0.81233 -0.03321 0.00979
140.90000 0.85214 -0.27657 -0.00010
141.00000 0.88426 -0.13956 0.02511
141.10000 0.82941 0.14440 0.01107
141.20000 0.87131 0.23591 -0.05009
141.30000 0.84709 0.13159 0.04483
141.40000 0.80668 -0.02009 -0.05923
141.50000 0.90577 0.09201 0.00674
141.60000 0.79823 0.17249 -0.00029
141.70000 0.92729 0.11455 0.02509
141.80000 0.74059 -0.18578 -0.03295
141.90000 0.88942 -0.06120 0.00920
142.00000 0.75874 0.38563 0.06338
142.10000 0.89137 0.58246 -0.06936
142.20000 0.81612 0.44778 -0.00872
142.30000 0.86622 0.29739 -0.02447
142.40000 0.87889 0.17120 -0.00976
142.50000 0.78093 0.27025 -0.02881
142.60000 0.84235 0.27231 0.02542
142.70000 0.83384 0.21136 0.05365
142.80000 0.82359 0.13577 -0.03052
142.90000 0.83182 0.23478 0.02870
143.00000 0.85723 0.08787 0.03086
143.10000 0.79386 0.05754 -0.01542
143.20000 0.90522 0.03324 -0.01506
143.30000 0.83527 -0.03862 0.03437
143.40000 0.85012 0.07718 -0.02260
143.50000 0.87173 0.05179 0.00993
143.60000 0.86555 -0.10161 -0.01035
143.70000 0.82156 -0.03395 -0.03527
143.80000 0.87516 0.08066 0.02820
143.90000 0.86325 -0.03490 0.01956
144.00000 0.88769 -0.01330 0.01374
144.10000 0.82857 -0.10217 -0.02549
144.20000 0.81359 -0.14800 -0.03993
144.30000 0.95491 -0.06630 0.00415
144.40000 0.75704 0.03931 0.00899
144.50000 0.84614 -0.12378 -0.04207
144.60000 0.88659 -0.33935 0.00830
144.70000 0.84645 -0.16457 0.03599
144.80000 0.81157 0.13710 0.01255
144.90000 0.85199 0.28725 -0.04095
145.00000 0.87136 0.22059 0.00741
145.10000 0.81035 0.13898 0.01059
145.20000 0.83450 0.08647 -0.00766
145.30000 0.92500 0.08832 -0.02551
145.40000 0.84603 -0.04882 0.00407
145.50000 0.79981 -0.00948 0.03580
145.60000 0.84413 -0.11764 -0.01890
145.70000 0.84254 -0.12769 0.01736
145.80000 0.82743 -0.00725 -0.03876
145.90000 0.85499 0.18450 0.02528
146.00000 0.81766 0.15637 0.03841
146.10000 0.87688 0.01248 -0.04103
146.20000 0.84929 -0.03366 -0.00086
146.30000 0.86961 -0.08003 0.06976
146.40000 0.78307 -0.12901 0.05896
146.50000 0.84078 -0.04964 -0.03495
146.60000 0.84935 -0.05090 0.00959
146.70000 0.92645 -0.20030 0.02161
146.80000 0.77199 -0.25315 0.00410
146.90000 0.89325 0.14804 0.01935
147.00000 0.89764 0.39772 0.02300
147.10000 0.85596 0.20788 -0.03441
147.20000 0.86136 0.15090 -0.04138
147.30000 0.89255 0.03415 0.05489
147.40000 0.81215 0.02832 0.01265
147.50000 0.89141 -0.16244 -0.01626
147.60000 0.80234 -0.31836 -0.02258
147.70000 0.83795 -0.08273 0.05137
147.80000 0.85585 0.19432 0.01998
147.90000 0.80071 0.10084 0.00179
148.00000 0.86104 -0.16815 0.06055
148.10000 0.78845 -0.29562 -0.00516
148.20000 0.92933 -0.24076 -0.05172
148.30000 0.79533 -0.14244 0.03269
148.40000 0.91865 -0.08667 -0.01083
148.50000 0.80205 0.07226 0.03063
148.60000 0.86741 0.11838 -0.01320
148.70000 0.85375 0.20698 0.03238
148.80000 0.87203 0.13838 0.04157
148.90000 0.81441 0.01244 -0.02121
149.00000 0.77771 -0.07020 0.00626
149.10000 0.94557 0.05420 0.00533
149.20000 0.82193 0.23925 0.01400
149.30000 0.85483 0.10691 0.06082
149.40000 0.87618 -0.02705 -0.02899
149.50000 0.85918 -0.02775 -0.02775
149.60000 0.81753 -0.05036 0.03702
149.70000 0.91418 0.04902 -0.04477
149.80000 0.83336 0.04175 -0.02975
149.90000 0.89022 0.03411 0.02825
150.00000 0.87315 0.25295 0.02316
150.10000 0.81943 0.28224 -0.00654
150.20000 0.91061 0.23559 0.01152
150.30000 0.78729 0.00033 0.02975
150.40000 0.86228 -0.14480 -0.02644
150.50000 0.77303 -0.04192 -0.01483
150.60000 0.87599 -0.00228 0.02500
150.70000 0.87560 -0.09383 0.01833
150.80000 0.83598 -0.02537 0.00085
150.90000 0.80289 0.13925 -0.00954
151.00000 0.89809 0.23247 0.00101
151.10000 0.76372 0.24300 0.05450
151.20000 0.93465 0.13091 -0.01810
151.30000 0.76569 0.02413 -0.09391
151.40000 0.92763 0.12979 0.02514
151.50000 0.78786 0.20931 0.01534
151.60000 0.84790 0.31829 0.05008
151.70000 0.84849 0.16159 -0.02261
151.80000 0.87795 -0.17127 0.00628
151.90000 0.79663 -0.26647 0.02243
152.00000 0.99638 -0.28895 -0.01828
152.10000 0.72772 -0.13071 0.01154
152.20000 0.89348 0.01963 -0.00813
152.30000 0.83873 -0.04114 0.04219
152.40000 0.83761 -0.10765 0.03249
152.50000 0.86317 0.08873 -0.00337
152.60000 0.85942 0.03063 -0.09070
152.70000 0.82122 -0.05335 -0.02037
152.80000 0.87472 -0.04907 0.02448
152.90000 0.82583 0.01026 0.01382
153.00000 0.86210 0.04835 -0.02200
153.10000 0.78262 -0.12445 0.00503
153.20000 0.89757 -0.11783 0.04044
153.30000 0.84281 -0.25565 0.04853
153.40000 0.87051 -0.08512 -0.01836
153.50000 0.83914 0.06449 0.02154
153.60000 0.88755 0.14489 0.00595
153.70000 0.81211 0.10250 -0.03244
153.80000 0.83952 -0.27125 0.01555
153.90000 0.86071 -0.17406 -0.00934
154.00000 0.84880 0.09414 -0.00616
154.10000 0.85952 0.15929 -0.01534
154.20000 0.87333 0.05911 -0.02185
154.30000 0.82851 -0.14562 0.03677
154.40000 0.89936 -0.21928 0.03995
154.50000 0.84592 -0.03976 -0.05069
154.60000 0.83510 0.03343 -0.10834
154.70000 0.89650 0.11016 0.06225
154.80000 0.85826 0.12654 0.03625
154.90000 0.81515 0.19995 -0.00307
155.00000 0.84075 0.12569 -0.00370
155.10000 0.91454 0.12340 -0.02559
155.20000 0.78382 0.15717 0.02958
155.30000 0.84592 0.06129 -0.02571
155.40000 0.80075 0.09437 0.03936
155.50000 0.83100 0.13945 0.01396
155.60000 0.85033 0.02257 -0.03928
155.70000 0.79893 -0.02962 -0.05576
155.80000 0.86926 -0.02904 0.08283
155.90000 0.83850 0.10142 -0.02206
156.00000 0.85952 0.09553 -0.01519
156.10000 0.85579 -0.10604 -0.01784
156.20000 0.77119 -0.30744 0.03722
156.30000 0.82314 -0.16051 -0.01538
156.40000 0.88893 0.14093 -0.06299
156.50000 0.80008 0.28404 0.01838
156.60000 0.92114 0.16748 -0.00375
156.70000 0.85430 0.16686 0.04989
156.80000 0.86339 0.08330 -0.01566
156.90000 0.83195 0.10595 -0.00332
157.00000 0.83196 -0.00438 0.02277
157.10000 0.84549 -0.15292 -0.01020
157.20000 0.88535 -0.13863 -0.00975
157.30000 0.83352 0.06641 0.03364
157.40000 0.86398 0.24840 0.06843
157.50000 0.78413 0.34783 -0.04103
157.60000 0.79082 0.37072 0.00226
157.70000 0.79366 0.35052 -0.04372
157.80000 0.87243 0.26641 0.00531
157.90000 0.84256 0.12666 0.06922
158.00000 0.85122 0.00895 0.02805
158.10000 0.85338 0.01533 -0.09250
158.20000 0.87860 -0.11431 0.00219
158.30000 0.80291 -0.27620 -0.01114
158.40000 0.91961 -0.17248 0.03711
158.50000 0.77918 -0.06027 -0.00712
158.60000 0.88917 0.03177 -0.00908
158.70000 0.81327 -0.19180 0.05951
158.80000 0.84811 -0.22539 -0.04860
158.90000 0.88644 -0.33958 -0.07776
159.00000 0.81677 -0.14521 0.08548
159.10000 0.85777 0.04442 0.02713
159.20000 0.86824 0.10840 0.01598
159.30000 0.83105 0.04863 -0.06299
159.40000 0.91694 -0.01237 0.03660
159.50000 0.80371 -0.11649 -0.05909
159.60000 0.87872 0.07980 0.00442
159.70000 0.85419 -0.00352 0.02873
159.80000 0.82262 0.06632 0.01925
159.90000 0.90789 -0.07188 0.00808
160.00000 0.79787 -0.02603 -0.02898
160.10000 0.88322 0.02071 0.05732
160.20000 0.83203 -0.08855 -0.02752
160.30000 0.78687 0.02609 -0.01058
160.40000 0.88259 0.20111 0.01396
160.50000 0.78488 0.28560 0.00187
160.60000 0.88165 0.02022 0.02620
160.70000 0.86687 -0.00254 0.01330
160.80000 0.77220 -0.09675 -0.02159
160.90000 0.83114 0.08726 -0.03644
161.00000 0.89492 0.09259 0.00932
161.10000 0.80789 0.01841 -0.00124
161.20000 0.87814 -0.15567 0.00081
161.30000 0.83868 -0.09748 -0.00311
161.40000 0.85185 -0.14483 0.03163
161.50000 0.88532 -0.05821 0.05210
161.60000 0.80914 0.05203 -0.03764
161.70000 0.88887 -0.23046 -0.02463
161.80000 0.86075 -0.30191 -0.01359
161.90000 0.82949 -0.09235 0.06360
162.00000 0.87987 -0.01658 0.02431
162.10000 0.86016 0.06221 0.00499
162.20000 0.80179 0.08246 0.02834
162.30000 0.88664 0.01037 0.01775
162.40000 0.78156 -0.11688 -0.01116
162.50000 0.85145 -0.02405 0.02125
162.60000 0.92383 0.05280 0.00977
162.70000 0.79655 -0.02415 -0.01305
162.80000 0.84960 -0.14840 -0.00823
162.90000 0.88019 -0.16127 0.03819
163.00000 0.88960 -0.15274 0.04350
163.10000 0.79743 -0.09921 -0.05259
163.20000 0.88147 0.04196 -0.00986
163.30000 0.80884 0.02360 0.04065
163.40000 0.85426 -0.06202 -0.00771
163.50000 0.90666 0.05045 0.04632
163.60000 0.83477 0.08107 -0.00731
163.70000 0.90383 -0.01642 -0.01989
163.80000 0.85570 -0.02750 -0.00942
163.90000 0.84311 0.06919 0.05694
164.00000 0.90077 0.22286 0.02735
164.10000 0.84121 0.27930 -0.02408
164.20000 0.82775 0.33207 0.01700
164.30000 0.85225 0.28697 0.04283
164.40000 0.86395 0.05793 -0.01942
164.50000 0.83713 -0.34876 -0.08414
164.60000 0.77354 -0.26102 0.07131
164.70000 0.84330 0.01544 0.03159
164.80000 0.89568 0.12278 -0.02671
164.90000 0.79024 0.25187 0.04382
165.00000 0.86527 0.17388 0.05406
165.10000 0.83853 -0.11755 -0.03696
165.20000 0.86305 0.03089 -0.01694
165.30000 0.84083 0.14640 0.00688
165.40000 0.82021 0.05316 0.01149
165.50000 0.84352 0.04625 -0.00904
165.60000 0.84956 0.23962 0.01687
165.70000 0.81495 0.27974 -0.00604
165.80000 0.86921 0.21175 -0.05792
165.90000 0.85959 -0.02598 0.00306
166.00000 0.88364 -0.11053 0.04399
166.10000 0.85858 -0.11144 -0.00830
166.20000 0.86500 0.03891 -0.04657
166.30000 0.81886 0.10256 0.00955
166.40000 0.93350 0.00239 -0.02995
166.50000 0.76076 -0.26779 0.01688
166.60000 0.95133 -0.30628 -0.00881
166.70000 0.78705 -0.37400 -0.01299
166.80000 0.82780 -0.15933 0.03562
166.90000 0.93599 0.06316 -0.02360
167.00000 0.76454 0.05463 -0.00418
167.10000 0.90657 0.09383 0.02604
167.20000 0.79456 -0.12011 0.00733
167.30000 0.85560 -0.19647 0.02329
167.40000 0.90933 -0.05572 -0.00580
167.50000 0.82296 -0.02498 0.02507
167.60000 0.83976 -0.03078 -0.03371
167.70000 0.80502 -0.21696 0.05089
167.80000 0.84047 -0.08837 -0.01509
167.90000 0.80798 0.03132 -0.01875
168.00000 0.89714 0.00210 0.00155
168.10000 0.80381 0.01792 0.00135
168.20000 0.86627 0.05916 -0.00628
168.30000 0.79956 0.20153 0.02740
168.40000 0.84620 0.05487 -0.00245
168.50000 0.86455 -0.01740 -0.08523
168.60000 0.87057 0.11694 0.03450
168.70000 0.82175 0.20064 -0.01306
168.80000 0.84679 0.07906 -0.00356
168.90000 0.84002 0.09157 -0.02191
169.00000 0.81129 0.23825 0.07368
169.10000 0.85921 0.11132 -0.00271
169.20000 0.83281 0.27873 -0.01534
169.30000 0.82929 0.22112 0.02612
169.40000 0.91924 -0.00133 -0.01423
169.50000 0.77369 -0.15305 -0.01948
169.60000 0.85534 -0.16500 0.02468
169.70000 0.86801 -0.04243 -0.02887
169.80000 0.87350 -0.00028 0.02100
169.90000 0.75590 -0.22084 0.02718
170.00000 0.89972 -0.28195 -0.00190
170.10000 0.84946 -0.11199 0.01716
170.20000 0.78736 -0.10046 -0.00950
170.30000 0.90955 -0.11669 -0.00544
170.40000 0.77205 -0.13366 0.05182
170.50000 0.88889 -0.05311 0.02903
170.60000 0.89497 0.09750 -0.01365
170.70000 0.78611 0.09121 -0.04028
170.80000 0.89934 0.22771 0.05681
170.90000 0.79841 0.41103 0.02164
171.00000 0.88763 0.38947 -0.02911
171.10000 0.82557 0.09450 0.04531
171.20000 0.86458 0.08572 -0.02335
171.30000 0.88901 0.13859 -0.01888
171.40000 0.86390 -0.04541 0.04818
171.50000 0.81570 -0.09554 -0.02403
171.60000 0.88317 -0.00333 -0.00376
171.70000 0.82807 0.12795 0.00061
171.80000 0.85153 0.15415 0.01633
171.90000 0.90091 0.16541 -0.03217
172.00000 0.89222 0.21790 0.01643
172.10000 0.82100 0.04163 -0.04235
172.20000 0.90452 -0.01814 0.05178
172.30000 0.81181 -0.04077 -0.05069
172.40000 0.82899 0.16960 -0.00590
172.50000 0.84992 0.04881 0.00378
172.60000 0.85775 -0.14432 -0.00643
172.70000 0.78841 -0.08206 0.01232
172.80000 0.88303 -0.05925 -0.06630
172.90000 0.83138 -0.21671 -0.02913
173.00000 0.80509 -0.08640 0.00363
173.10000 0.84973 0.00099 -0.01978
173.20000 0.83920 0.11827 0.05760
173.30000 0.87527 -0.06750 0.01242
173.40000 0.81917 -0.15748 -0.06037
173.50000 0.75345 -0.00106 0.01529
173.60000 0.91038 0.24077 0.01796
173.70000 0.80492 0.13463 -0.02336
173.80000 0.88388 0.06472 0.03011
173.90000 0.79455 -0.05286 -0.04345
174.00000 0.84629 0.01489 -0.02631
174.10000 0.85165 0.31000 0.04566
174.20000 0.80702 0.35482 0.02388
174.30000 0.80231 0.30769 -0.04693
174.40000 0.92089 0.11214 -0.00314
174.50000 0.84532 -0.03979 0.07305
174.60000 0.78509 0.01646 0.05485
174.70000 0.86141 -0.08923 -0.00771
174.80000 0.90386 -0.20704 0.01470
174.90000 0.83966 -0.03519 0.04269
175.00000 0.92254 -0.06226 -0.05898
175.10000 0.81616 -0.08306 0.03079
175.20000 0.80962 -0.12561 -0.01047
175.30000 0.86802 -0.18525 -0.03651
175.40000 0.83560 -0.00376 0.03974
175.50000 0.84814 0.18853 -0.01252
175.60000 0.78159 0.10055 -0.00580
175.70000 0.89733 -0.03366 0.03560
175.80000 0.86304 -0.19240 0.00290
175.90000 0.82827 -0.01880 0.01365
176.00000 0.85739 0.12763 -0.01283
176.10000 0.82120 0.02060 -0.01948
176.20000 0.91325 -0.06333 0.00696
176.30000 0.79798 -0.22090 0.07290
176.40000 0.89622 -0.20650 -0.03140
176.50000 0.82894 -0.08748 -0.01524
176.60000 0.84432 0.11237 0.00066
176.70000 0.86797 0.17973 -0.06724
176.80000 0.78157 0.13454 0.06368
176.90000 0.87038 0.14095 0.04382
177.00000 0.81778 0.07578 -0.01093
177.10000 0.84882 -0.06540 0.00821
177.20000 0.87257 -0.04383 0.01379
177.30000 0.84192 0.10973 0.02825
177.40000 0.90535 0.11767 -0.00061
177.50000 0.79206 0.02872 -0.01580
177.60000 0.85990 -0.06151 -0.02974
177.70000 0.85217 -0.12328 0.02573
177.80000 0.87447 0.03296 0.05755
177.90000 0.82140 0.30892 -0.05871
178.00000 0.88996 -0.00081 -0.03789
178.10000 0.87205 -0.24717 0.01803
178.20000 0.87594 -0.22955 0.07072
178.30000 0.84234 -0.15257 -0.04887
178.40000 0.89785 -0.22151 0.01764
178.50000 0.74014 -0.16613 0.04299
178.60000 0.88177 -0.16027 -0.01891
178.70000 0.85337 -0.13465 -0.03612
178.80000 0.84962 -0.16503 -0.02366
178.90000 0.81647 0.02626 -0.01126
179.00000 0.86721 0.05018 -0.02154
179.10000 0.82312 0.03298 -0.04449
179.20000 0.86502 0.12710 0.03222
179.30000 0.82256 0.10578 -0.04559
179.40000 0.84536 -0.04481 0.02231
179.50000 0.81661 -0.21705 0.02453
179.60000 0.88970 -0.21355 0.02354
179.70000 0.78644 -0.21248 -0.01365
179.80000 0.92369 -0.22809 0.03038
179.90000 0.87498 -0.07731 -0.01651
180.00000 0.77796 -0.11283 0.00004
180.10000 0.86421 0.06425 -0.06061
180.20000 0.85519 0.07490 0.03324
180.30000 0.86176 -0.07252 0.04325
180.40000 0.86725 -0.13925 -0.02302
180.50000 0.80614 -0.01617 -0.00504
180.60000 0.86770 0.16802 0.02613
180.70000 0.87840 0.09643 -0.04120
180.80000 0.79273 0.19443 -0.00852
180.90000 0.84577 0.20558 -0.01709
181.00000 0.88468 0.08362 -0.00577
181.10000 0.79204 -0.02711 -0.03046
181.20000 0.87422 0.03552 0.02270
181.30000 0.83681 0.13854 0.01095
181.40000 0.87173 0.25309 0.06498
181.50000 0.86190 0.02546 -0.00503
181.60000 0.85295 -0.09541 -0.02449
181.70000 0.81866 -0.09806 0.04658
181.80000 0.87117 -0.05384 -0.02433
181.90000 0.91001 -0.03681 -0.06202
182.00000 0.77451 0.10920 0.03585
182.10000 0.88926 0.21412 -0.02491
182.20000 0.82156 0.00464 -0.02618
182.30000 0.85062 -0.16984 -0.02553
182.40000 0.84446 -0.15064 0.04194
182.50000 0.87319 -0.06536 0.06069
182.60000 0.80308 -0.04229 -0.02707
182.70000 0.86108 0.14031 -0.00103
182.80000 0.87010 0.13844 -0.00448
182.90000 0.83288 0.04479 0.01870
183.00000 0.91895 -0.02708 0.02687
183.10000 0.84127 -0.08581 -0.02063
183.20000 0.85583 -0.08701 -0.01533
183.30000 0.87423 -0.15540 0.04778
183.40000 0.86118 -0.14958 -0.02966
183.50000 0.78297 -0.02023 -0.02920
183.60000 0.91355 -0.03726 0.00735
183.70000 0.80047 -0.07156 0.07945
183.80000 0.89395 -0.09694 -0.04869
183.90000 0.73951 -0.06811 0.06434
184.00000 0.92422 -0.08979 -0.02506
184.10000 0.77864 0.09992 0.01958
184.20000 0.82777 0.07024 0.01986
184.30000 0.88512 0.17380 -0.00057
184.40000 0.83736 -0.00128 0.00616
184.50000 0.81171 -0.10875 -0.02146
184.60000 0.88732 -0.08076 0.06729
184.70000 0.84369 0.00272 -0.07739
184.80000 0.92742 -0.10157 0.03662
184.90000 0.74783 -0.06537 0.03907
185.00000 0.92110 -0.14589 -0.01603
185.10000 0.84698 -0.16351 0.00206
185.20000 0.85441 -0.05275 0.04898
185.30000 0.79603 0.12249 -0.04828
185.40000 0.88920 0.11615 -0.07600
185.50000 0.76425 -0.03004 0.02554
185.60000 0.87519 -0.10519 -0.02368
185.70000 0.81328 -0.11940 -0.09205
185.80000 0.85130 -0.01627 -0.00572
185.90000 0.85824 0.09183 0.09173
186.00000 0.80214 0.03990 -0.01265
186.10000 0.83001 -0.09962 0.00562
186.20000 0.87164 0.10065 0.03663
186.30000 0.85559 0.18482 -0.03938
186.40000 0.85356 -0.02779 -0.04615
186.50000 0.81779 -0.00565 -0.01500
186.60000 0.93368 0.12262 -0.00159
186.70000 0.78216 0.12650 -0.04619
186.80000 0.87328 -0.01084 0.00538
186.90000 0.80112 -0.16007 0.03041
187.00000 0.86621 -0.26468 -0.01611
187.10000 0.86381 -0.05507 0.00466
187.20000 0.81060 0.12121 0.00371
187.30000 0.91952 0.13724 0.00226
187.40000 0.87291 -0.14734 -0.01129
187.50000 0.84381 -0.14112 0.00308
187.60000 0.84933 -0.05018 -0.02227
187.70000 0.83558 0.22833 0.01585
187.80000 0.85319 0.36955 0.03958
187.90000 0.83196 0.27429 -0.04031
188.00000 0.82095 0.25386 -0.04946
188.10000 0.88708 0.10092 -0.04599
188.20000 0.79054 -0.03735 0.03596
188.30000 0.89629 0.14867 -0.05903
188.40000 0.89952 0.17020 -0.00572
188.50000 0.84451 0.23197 0.00464
188.60000 0.89107 0.08396 -0.03356
188.70000 0.78371 0.04693 0.03256
188.80000 0.82878 -0.07538 -0.01114
188.90000 0.87738 -0.18441 -0.05444
189.00000 0.85783 -0.29969 0.02255
189.10000 0.82385 -0.09040 -0.00049
189.20000 0.77657 0.06193 -0.00292
189.30000 0.90231 -0.02069 0.00046
189.40000 0.86486 -0.02882 -0.03107
189.50000 0.77792 0.11077 -0.05496
189.60000 0.93694 0.31244 0.04127
189.70000 0.80100 0.21110 0.01563
189.80000 0.87996 0.02696 -0.03528
189.90000 0.86497 0.21509 0.01466
190.00000 0.81173 0.35613 0.05015
190.10000 0.84224 0.07915 -0.01894
190.20000 0.89744 -0.03904 -0.01318
190.30000 0.77419 -0.01529 0.01913
190.40000 0.90108 0.09016 0.02169
190.50000 0.86027 0.08516 0.05555
190.60000 0.83287 -0.17371 -0.04542
190.70000 0.85671 -0.07096 0.01571
190.80000 0.87552 0.07318 0.04009
190.90000 0.80718 0.09756 -0.00094
191.00000 0.89418 0.08592 0.03120
191.10000 0.84290 0.27050 -0.00316
191.20000 0.89474 0.33876 -0.03169
191.30000 0.74041 0.14746 -0.00421
191.40000 0.92467 -0.12229 0.03572
191.50000 0.85069 -0.24358 -0.04527
191.60000 0.88319 -0.18728 -0.08981
191.70000 0.87858 -0.21566 0.07990
191.80000 0.74379 -0.19636 0.01689
191.90000 0.93907 0.06033 -0.00955
192.00000 0.81107 0.20046 -0.03850
192.10000 0.81757 0.16811 -0.00728
192.20000 0.89619 -0.02140 0.07927
192.30000 0.85202 -0.10429 0.03509
192.40000 0.81057 -0.05406 -0.05893
192.50000 0.85777 0.06572 0.00655
192.60000 0.78256 -0.09840 0.04570
192.70000 0.88451 -0.18037 -0.01333
192.80000 0.82234 -0.16745 -0.02985
192.90000 0.85697 0.07491 -0.06119
193.00000 0.85181 0.36304 0.07446
193.10000 0.85784 0.46719 -0.00699
193.20000 0.84261 0.50976 -0.07066
193.30000 0.87146 0.20702 -0.01853
193.40000 0.80926 0.09368 0.00297
193.50000 0.91124 0.32793 0.01179
193.60000 0.78734 0.37926 -0.04081
193.70000 0.89590 0.24616 -0.05125
193.80000 0.81734 0.13344 0.05247
193.90000 0.85433 0.11252 0.03832
194.00000 0.88391 0.11465 -0.05671
194.10000 0.83960 0.00488 0.02245
194.20000 0.86371 0.04777 -0.02295
194.30000 0.83754 -0.01633 0.03663
194.40000 0.85506 0.05425 -0.00655
194.50000 0.80510 0.02938 0.02997
194.60000 0.84469 -0.02249 -0.03235
194.70000 0.87846 0.10604 0.05600
194.80000 0.83318 0.15908 -0.04318
194.90000 0.88864 0.00903 -0.04409
195.00000 0.80915 -0.23146 0.03740
195.10000 0.82620 -0.19621 0.00384
195.20000 0.84793 -0.18746 0.02126
195.30000 0.82452 0.06827 -0.03775
195.40000 0.86895 0.22561 0.02936
195.50000 0.88598 0.11873 0.01656
195.60000 0.80804 -0.03048 -0.00073
195.70000 0.87286 -0.10688 0.06643
195.80000 0.89166 -0.19065 -0.03049
195.90000 0.80803 -0.10007 0.01893
196.00000 0.89970 -0.14451 0.05238
196.10000 0.82230 0.05360 -0.01473
196.20000 0.94690 0.22298 -0.02095
196.30000 0.77727 0.15838 0.00108
196.40000 0.91176 0.06087 -0.03253
196.50000 0.77619 0.07485 -0.01087
196.60000 0.86894 0.02393 0.00583
196.70000 0.86871 -0.02478 0.03659
196.80000 0.82918 0.07855 -0.01642
196.90000 0.88647 0.14234 -0.00623
197.00000 0.84816 0.08744 0.02592
197.10000 0.84873 0.15207 -0.01388
197.20000 0.88105 0.15383 0.01910
197.30000 0.83467 0.11883 -0.02992
197.40000 0.85678 0.12482 0.00481
197.50000 0.84283 -0.07767 -0.01328
197.60000 0.82365 -0.05303 -0.00051
197.70000 0.83162 0.00529 0.01092
197.80000 0.92891 0.03674 -0.03821
197.90000 0.80147 -0.02469 0.07372
198.00000 0.89331 -0.07345 -0.06170
198.10000 0.78580 -0.03984 0.01912
198.20000 0.91083 -0.20154 0.05637
198.30000 0.80217 -0.26114 -0.03481
198.40000 0.92288 -0.17562 -0.07119
198.50000 0.77007 -0.09461 0.02157
198.60000 0.97931 -0.07096 0.03654
198.70000 0.76369 -0.17978 -0.09920
198.80000 0.93620 -0.12689 0.04027
198.90000 0.80573 0.09059 0.07144
199.00000 0.85505 0.26806 -0.00100
199.10000 0.86021 0.32008 -0.03766
199.20000 0.87277 0.23507 -0.00385
199.30000 0.85915 0.01830 0.02396
199.40000 0.84560 -0.03904 0.01837
199.50000 0.86249 -0.07868 -0.01335
199.60000 0.91416 -0.09019 0.06021
199.70000 0.78191 -0.01155 -0.00591
199.80000 0.88905 0.03456 -0.02395
199.90000 0.84335 -0.05325 0.00302
200.00000 0.82011 0.07682 -0.00119
200.10000 0.84581 0.12272 0.01895
200.20000 0.79706 0.17662 -0.01002
200.30000 0.88395 0.12575 -0.03243
200.40000 0.81354 -0.03657 -0.03764
200.50000 0.83981 -0.10819 0.05921
200.60000 0.83410 0.06404 0.02526
200.70000 0.88764 0.05631 -0.03307
200.80000 0.81064 0.02333 0.04491
200.90000 0.87796 0.12515 -0.01459
201.00000 0.83819 0.18669 -0.01890
201.10000 0.86677 0.11749 0.02104
201.20000 0.84878 0.14002 0.02313
201.30000 0.83522 0.00193 -0.01312
201.40000 0.91911 -0.03367 -0.00684
201.50000 0.81233 -0.01975 -0.02055
201.60000 0.85168 0.11623 0.01609
201.70000 0.87192 0.17260 0.01025
201.80000 0.80518 0.20119 -0.02571
201.90000 0.77117 -0.08392 0.04712
202.00000 0.91481 -0.28075 -0.05212
202.10000 0.82621 -0.26581 -0.02849
202.20000 0.87870 0.06004 -0.00456
202.30000 0.80964 0.06730 0.04522
202.40000 0.79776 0.05933 -0.03042
202.50000 0.92625 0.04573 -0.06652
202.60000 0.73668 -0.03684 0.07965
202.70000 0.84664 -0.22849 0.00963
202.80000 0.80454 -0.18969 0.01491
202.90000 0.88040 -0.08035 -0.00651
203.00000 0.78011 -0.20603 -0.00116
203.10000 0.84072 -0.02407 0.02303
203.20000 0.79804 0.06276 -0.01201
203.30000 0.86516 0.10399 0.04161
203.40000 0.87265 0.05340 -0.01493
203.50000 0.76107 -0.12021 0.01591
203.60000 0.94138 -0.24029 0.01999
203.70000 0.74266 -0.14606 -0.00554
203.80000 0.87785 -0.08272 -0.03303
203.90000 0.81652 0.01001 -0.02062
204.00000 0.82661 0.08236 0.06839
204.10000 0.84852 -0.01877 -0.06605
204.20000 0.82462 -0.24010 -0.02177
204.30000 0.85986 -0.26761 0.03169
204.40000 0.82233 -0.08270 -0.00237
204.50000 0.85290 0.01680 -0.00749
204.60000 0.80875 -0.03927 -0.03523
204.70000 0.82668 -0.08957 0.02004
204.80000 0.84153 -0.09206 -0.02926
204.90000 0.83720 -0.24103 -0.00670
205.00000 0.85704 -0.04543 -0.01374
205.10000 0.86533 0.04538 -0.00561
205.20000 0.70906 0.12823 -0.01340
205.30000 0.98272 0.07404 -0.01817
205.40000 0.79420 -0.02800 -0.01914
205.50000 0.93041 0.07654 0.04661
205.60000 0.83204 0.18128 -0.03088
205.70000 0.88952 0.20279 -0.01566
205.80000 0.77851 0.33806 -0.00315
205.90000 0.91486 0.21098 -0.01334
206.00000 0.82010 -0.19666 -0.01170
206.10000 0.91448 -0.26146 -0.03411
206.20000 0.81163 -0.26099 -0.04750
206.30000 0.82123 -0.07438 0.02793
206.40000 0.90073 -0.01970 0.05476
206.50000 0.80212 -0.02173 -0.03715
206.60000 0.88125 0.01249 -0.02966
206.70000 0.83519 0.26620 0.05458
206.80000 0.80591 0.42422 -0.00136
206.90000 0.87183 0.21508 0.00173
207.00000 0.83480 0.08624 0.00324
207.10000 0.80132 -0.24965 0.01283
207.20000 0.85119 -0.48169 0.02371
207.30000 0.86734 -0.28744 -0.04952
207.40000 0.87534 -0.11374 -0.04022
207.50000 0.82042 -0.08570 0.05298
207.60000 0.91204 -0.19314 0.03776
207.70000 0.83200 -0.29006 -0.00264
207.80000 0.91187 -0.33855 -0.06481
207.90000 0.75216 -0.20926 0.02786
208.00000 0.85673 0.05618 -0.01834
208.10000 0.82722 -0.01996 -0.00127
208.20000 0.90258 0.03568 0.04528
208.30000 0.76687 0.14842 -0.01973
208.40000 0.87464 0.19344 0.03550
208.50000 0.81046 -0.03895 -0.07084
208.60000 0.89803 -0.28490 0.01262
208.70000 0.85711 -0.37390 0.04118
208.80000 0.82113 -0.15942 -0.02461
208.90000 0.81002 -0.01156 -0.00380
209.00000 0.90159 0.03454 -0.01494
209.10000 0.74862 0.01995 -0.01345
209.20000 0.95916 -0.03907 0.01731
209.30000 0.81476 -0.05954 0.00976
209.40000 0.93605 0.08496 -0.02328
209.50000 0.78861 -0.06718 0.03229
209.60000 0.91191 -0.11610 -0.00894
209.70000 0.84417 -0.27165 -0.02282
209.80000 0.81432 -0.18145 -0.01558
209.90000 0.93730 -0.19019 -0.06257
210.00000 0.81905 0.03970 0.01551
210.10000 0.86782 0.05703 -0.00974
210.20000 0.84017 0.08181 0.01548
210.30000 0.83859 0.15244 -0.02940
210.40000 0.85492 0.13828 0.02701
210.50000 0.84744 0.18406 -0.01839
210.60000 0.85638 0.06033 -0.02450
210.70000 0.76627 -0.06198 -0.02126
210.80000 0.82897 -0.16027 0.02418
210.90000 0.87688 -0.11267 -0.00178
211.00000 0.78116 -0.06353 -0.07253
211.10000 0.89501 0.00259 0.04075
211.20000 0.81588 -0.02300 -0.02108
211.30000 0.88694 -0.15427 -0.01951
211.40000 0.80426 -0.18030 -0.08400
211.50000 0.88824 -0.18895 0.07720
211.60000 0.82303 -0.08129 0.02599
211.70000 0.83606 -0.04366 -0.06656
211.80000 0.80151 0.11510 0.00616
211.90000 0.92969 0.16674 0.01667
212.00000 0.80145 0.00846 -0.00154
212.10000 0.86670 0.04741 0.06161
212.20000 0.82544 0.12291 -0.08450
212.30000 0.81979 0.04477 -0.01484
212.40000 0.90301 -0.03829 -0.00489
212.50000 0.83584 -0.22201 0.04233
212.60000 0.86921 -0.21987 0.01182
212.70000 0.87118 -0.18285 -0.05254
212.80000 0.82965 0.00170 -0.04579
212.90000 0.84604 0.22795 -0.00999
213.00000 0.76208 0.12404 0.01314
213.10000 0.84979 -0.32214 0.07550
213.20000 0.88653 -0.37771 -0.01522
213.30000 0.78531 -0.13248 -0.02571
213.40000 0.95732 0.02531 0.04964
213.50000 0.77768 0.16665 -0.01646
213.60000 0.93140 0.30104 0.02874
213.70000 0.78079 0.27397 -0.05027
213.80000 0.86851 0.11186 0.03809
213.90000 0.81554 -0.08169 -0.02559
214.00000 0.91232 0.04081 0.00105
214.10000 0.81569 0.10889 -0.03612
214.20000 0.92938 0.11204 0.02326
214.30000 0.76639 -0.05335 0.05548
214.40000 0.90984 -0.11420 -0.01059
214.50000 0.83078 -0.10537 -0.09651
214.60000 0.84104 0.06697 0.04987
214.70000 0.83632 0.19483 0.04109
214.80000 0.83871 0.12429 -0.00949
214.90000 0.82456 0.02485 -0.03375
215.00000 0.83564 -0.07231 0.00175
215.10000 0.83724 -0.10449 -0.02867
215.20000 0.80890 -0.10181 0.03971
215.30000 0.88085 -0.02879 0.00657
215.40000 0.82453 -0.17320 -0.05963
215.50000 0.82710 -0.22179 0.03165
215.60000 0.84086 0.04488 -0.01882
215.70000 0.84019 0.07235 -0.00792
215.80000 0.86942 0.14888 0.01756
215.90000 0.90025 0.12361 -0.00839
216.00000 0.81462 -0.04618 0.02167
216.10000 0.90853 0.22997 -0.03024
216.20000 0.82321 0.34077 0.00054
216.30000 0.89291 0.15719 0.03926
216.40000 0.79430 -0.09402 0.01157
216.50000 0.89476 -0.10531 -0.04841
216.60000 0.87101 -0.03191 0.03669
216.70000 0.74964 -0.22252 0.05853
216.80000 0.89491 -0.29165 -0.01992
216.90000 0.88496 -0.25608 0.03212
217.00000 0.80310 -0.14522 0.01795
217.10000 0.92260 0.04230 -0.07940
217.20000 0.78408 0.29502 0.04665
217.30000 0.89813 0.23716 0.02588
217.40000 0.77986 0.13117 -0.02625
217.50000 0.89164 0.05456 0.01699
217.60000 0.83716 -0.02650 0.03370
217.70000 0.80976 -0.07981 -0.03308
217.80000 0.98432 -0.13162 0.01022
217.90000 0.77292 -0.13027 0.06378
218.00000 0.90871 -0.11465 -0.05861
218.10000 0.82678 -0.09081 -0.00110
218.20000 0.87558 -0.05433 -0.00196
218.30000 0.88843 0.09651 0.02878
218.40000 0.82783 0.07352 -0.02808
218.50000 0.93498 0.08383 0.03872
218.60000 0.83197 -0.08119 0.00350
218.70000 0.84848 -0.35509 0.03157
218.80000 0.80309 -0.31353 0.05779
218.90000 0.84600 -0.16358 -0.00759
219.00000 0.88652 0.04409 0.02175
219.10000 0.81228 0.10794 0.01026
219.20000 0.82318 0.14510 -0.03280
219.30000 0.89148 0.11993 0.02880
219.40000 0.80474 0.10342 -0.03735
219.50000 0.90406 0.05945 -0.04002
219.60000 0.78632 0.14853 0.03685
219.70000 0.84219 0.08886 0.03181
219.80000 0.86946 -0.07203 0.04809
219.90000 0.85062 0.03946 -0.02067
220.00000 0.90157 0.08936 0.01854
220.10000 0.82258 -0.10588 -0.03132
220.20000 0.91609 -0.30809 -0.07045
220.30000 0.79496 -0.25877 0.05181
220.40000 0.85738 -0.17274 0.02959
220.50000 0.84718 0.01358 -0.00969
220.60000 0.81123 0.09305 -0.01094
220.70000 0.88784 0.10387 0.06284
220.80000 0.85198 0.02079 0.00083
220.90000 0.85194 -0.04275 -0.03998
221.00000 0.85675 -0.18441 0.00168
221.10000 0.86359 -0.20555 0.00918
221.20000 0.84067 0.16959 -0.01794
221.30000 0.86189 0.37409 0.04994
221.40000 0.82676 0.28757 -0.00860
221.50000 0.88229 0.00200 -0.03903
221.60000 0.83821 -0.20673 -0.02440
221.70000 0.79521 -0.05420 -0.00647
221.80000 0.88240 0.09383 0.00872
221.90000 0.89133 0.07447 0.03557
222.00000 0.81741 0.06183 0.03698
222.10000 0.86865 -0.01167 -0.00856
222.20000 0.88020 -0.00284 -0.03490
222.30000 0.72465 0.06391 0.07016
222.40000 0.93866 0.27052 -0.01982
222.50000 0.78688 0.19074 -0.01019
222.60000 0.92602 0.02867 0.00573
222.70000 0.85270 -0.01305 -0.00796
222.80000 0.82377 -0.11570 0.03812
222.90000 0.81710 -0.04344 -0.00550
223.00000 0.82424 0.07650 -0.02423
223.10000 0.92981 -0.03625 0.03083
223.20000 0.84454 -0.04808 0.00922
223.30000 0.84356 0.07669 -0.03484
223.40000 0.91405 0.03721 -0.01001
223.50000 0.77061 -0.02658 0.06018
223.60000 0.87791 -0.05994 0.02658
223.70000 0.88180 -0.12513 -0.06883
223.80000 0.77125 -0.18299 -0.05358
223.90000 0.92576 -0.09090 0.05058
224.00000 0.82765 0.08976 0.04165
224.10000 0.85199 0.13978 -0.05012
224.20000 0.86517 0.12265 -0.03031
224.30000 0.83893 0.03632 0.09037
224.40000 0.81468 0.19561 0.03135
224.50000 0.92451 0.16816 -0.10831
224.60000 0.82970 -0.08551 0.02107
224.70000 0.82926 -0.13547 -0.00369
224.80000 0.87201 0.12603 -0.04021
224.90000 0.88009 0.15725 0.03140
225.00000 0.75446 0.03219 -0.00845
225.10000 0.91978 0.02773 0.00026
225.20000 0.78370 -0.03984 -0.00721
225.30000 0.89832 0.04806 0.04001
225.40000 0.82643 0.00344 0.02610
225.50000 0.83721 -0.11435 -0.08814
225.60000 0.85153 -0.02115 0.02992
225.70000 0.84317 -0.23543 0.07774
225.80000 0.85459 -0.18875 -0.00802
225.90000 0.86306 -0.02286 0.03628
226.00000 0.88228 0.04064 -0.00665
226.10000 0.87215 0.12974 -0.02482
226.20000 0.80956 0.12324 0.02327
226.30000 0.82687 0.10543 0.02089
226.40000 0.86475 0.12587 0.01168
226.50000 0.82915 0.13597 0.04189
226.60000 0.88959 0.15285 0.01768
226.70000 0.80048 0.02384 0.02580
226.80000 0.83603 -0.04761 -0.00146
226.90000 0.79771 -0.15509 -0.02887
227.00000 0.79413 -0.28343 -0.01601
227.10000 0.82483 -0.30463 -0.00966
227.20000 0.83183 -0.30286 -0.02137
227.30000 0.88580 0.03182 0.03592
227.40000 0.79900 0.08455 0.03475
227.50000 0.89239 0.05504 -0.00059
227.60000 0.90946 -0.05283 -0.02347
227.70000 0.77486 0.00336 -0.03052
227.80000 0.88026 0.05921 -0.01018
227.90000 0.86401 -0.02285 -0.00189
228.00000 0.83721 -0.11093 -0.03204
228.10000 0.88928 -0.09546 0.02439
228.20000 0.87798 -0.09731 0.01090
228.30000 0.83420 0.06143 -0.08234
228.40000 0.81543 0.03652 0.02064
228.50000 0.87819 -0.09752 -0.00030
228.60000 0.88403 -0.10366 0.02112
228.70000 0.81585 -0.05093 -0.01794
228.80000 0.80875 -0.08362 0.06373
228.90000 0.81739 -0.10617 -0.01027
229.00000 0.86105 0.02186 -0.04983
229.10000 0.81543 0.14615 -0.03498
229.20000 0.78497 0.19698 -0.01752
229.30000 0.86998 0.06436 0.10948
229.40000 0.88887 0.17220 0.00461
229.50000 0.89401 0.27047 -0.02313
229.60000 0.85610 0.05302 0.02081
229.70000 0.84316 -0.28637 0.03744
229.80000 0.82354 -0.29845 -0.01002
229.90000 0.88382 -0.01014 -0.03387
230.00000 0.85142 0.18027 -0.01528
230.10000 0.82055 0.22255 0.04428
230.20000 0.82393 0.13048 -0.04473
230.30000 0.93143 0.23861 -0.04194
230.40000 0.80299 0.14690 0.06070
230.50000 0.87279 0.02214 -0.05223
230.60000 0.90502 -0.11877 0.03434
230.70000 0.81407 -0.16940 0.05359
230.80000 0.88502 -0.18748 -0.07204
230.90000 0.79618 -0.14483 0.03734
231.00000 0.87188 0.19229 0.05618
231.10000 0.83000 0.16324 -0.03092
231.20000 0.81498 0.01569 -0.03139
231.30000 0.91769 0.00572 -0.01645
231.40000 0.81906 -0.03238 -0.01609
231.50000 0.80772 0.00062 0.01502
231.60000 0.84260 0.00506 -0.02068
231.70000 0.85001 -0.00839 0.01551
231.80000 0.86701 0.01515 0.04024
231.90000 0.80898 -0.04986 0.01448
232.00000 0.85714 -0.21986 -0.06873
232.10000 0.84006 -0.27181 -0.02355
232.20000 0.87308 -0.23281 0.02879
232.30000 0.82864 -0.12250 0.00413
232.40000 0.88000 -0.15828 -0.10876
232.50000 0.83976 -0.16785 0.01784
232.60000 0.83992 0.05737 0.03061
232.70000 0.86118 0.15367 0.04032
232.80000 0.84935 0.25842 -0.03005
232.90000 0.87137 0.06703 0.02135
233.00000 0.88959 -0.12556 0.01882
233.10000 0.75863 -0.15762 -0.01138
233.20000 0.87035 0.09570 -0.07053
233.30000 0.79460 0.20716 -0.00645
233.40000 0.90237 0.06877 0.01917
233.50000 0.76868 -0.11456 -0.00881
233.60000 0.89667 -0.12989 0.05894
233.70000 0.80485 -0.01090 -0.07287
233.80000 0.89109 0.15169 0.05403
233.90000 0.81863 0.12481 -0.01599
234.00000 0.85797 0.16536 -0.03652
234.10000 0.83746 0.11234 0.07046
234.20000 0.84264 0.03395 0.02074
234.30000 0.85899 -0.06289 0.01132
234.40000 0.82805 0.01361 0.01279
234.50000 0.85830 0.15773 -0.02953
234.60000 0.87877 0.03738 0.02435
234.70000 0.86992 0.04383 0.01256
234.80000 0.82105 0.04076 -0.00498
234.90000 0.84116 -0.02584 0.00568
235.00000 0.95190 -0.00376 0.00357
235.10000 0.80550 -0.11538 -0.04648
235.20000 0.87601 -0.16120 0.01669
235.30000 0.80227 -0.03310 0.04243
235.40000 0.91548 0.04591 0.01869
235.50000 0.77232 0.20611 -0.04269
235.60000 0.89721 0.27094 -0.00819
235.70000 0.80239 0.28495 0.03271
235.80000 0.81211 0.03173 0.08963
235.90000 0.92234 0.13203 -0.02837
236.00000 0.75091 0.04036 -0.05753
236.10000 0.88223 -0.06300 0.05194
236.20000 0.84839 -0.22723 -0.00462
236.30000 0.79774 -0.11017 -0.07310
236.40000 0.93273 0.07579 -0.02872
236.50000 0.84438 0.12821 0.04092
236.60000 0.87854 -0.13812 -0.01859
236.70000 0.81454 -0.24059 0.00377
236.80000 0.84447 -0.13081 -0.00183
236.90000 0.86227 0.04543 0.03124
237.00000 0.80688 -0.00808 0.02979
237.10000 0.89876 0.03354 -0.02412
237.20000 0.78789 0.11738 -0.02216
237.30000 0.91168 0.13317 -0.00801
237.40000 0.74768 0.20070 0.04580
237.50000 0.87233 0.15485 -0.01777
237.60000 0.87785 0.04242 -0.02001
237.70000 0.77982 0.06011 0.01534
237.80000 0.85941 0.04187 0.01161
237.90000 0.80699 0.03710 -0.00294
238.00000 0.88719 -0.00983 -0.00228
238.10000 0.82239 -0.07772 0.00866
238.20000 0.84391 -0.29405 -0.04161
238.30000 0.85603 -0.31634 0.02415
238.40000 0.84332 -0.21837 0.00549
238.50000 0.82822 -0.06783 -0.02513
238.60000 0.86447 -0.11101 -0.02441
238.70000 0.86752 -0.12105 0.01573
238.80000 0.77943 -0.08305 -0.00794
238.90000 0.95540 -0.20694 0.03759
239.00000 0.77941 -0.33133 0.00455
239.10000 0.87698 -0.07271 -0.05299
239.20000 0.81125 -0.00278 0.04563
239.30000 0.85227 0.03554 -0.00053
239.40000 0.86664 0.22153 -0.10808
239.50000 0.84006 0.19029 0.03110
239.60000 0.87476 0.17857 0.02021
239.70000 0.80339 -0.03423 -0.04785
239.80000 0.81695 -0.17195 0.00415
239.90000 0.84200 -0.00424 0.05026
240.00000 0.81767 -0.00024 0.01216
240.10000 0.89915 0.02629 -0.03859
240.20000 0.81037 0.08436 0.06511
240.30000 0.86559 -0.02202 0.00804
240.40000 0.90071 -0.08307 -0.01767
240.50000 0.77212 0.01284 0.00928
240.60000 0.95422 0.00927 -0.00504
240.70000 0.71515 0.17465 -0.03788
240.80000 0.95932 0.35045 0.03774
240.90000 0.83473 0.41849 0.08951
241.00000 0.87431 0.17927 -0.00389
241.10000 0.80703 -0.06036 -0.07019
241.20000 0.85892 -0.02377 0.01677
241.30000 0.88913 -0.03951 0.01178
241.40000 0.80279 0.04437 -0.02772
241.50000 0.86940 -0.10842 -0.03041
241.60000 0.85967 0.04807 0.02583
241.70000 0.83786 0.12581 0.02611
241.80000 0.81323 0.08439 0.00710
241.90000 0.81598 0.08420 -0.02706
242.00000 0.90571 -0.00630 0.03547
242.10000 0.82335 -0.11477 -0.00253
242.20000 0.83125 -0.11540 0.00457
242.30000 0.88246 -0.01322 0.00441
242.40000 0.84568 -0.00500 -0.03265
242.50000 0.92880 -0.07098 -0.01625
242.60000 0.83468 -0.08419 -0.02409
242.70000 0.83933 0.13244 -0.03333
242.80000 0.85688 0.25427 0.04153
242.90000 0.85849 0.07632 0.01723
243.00000 0.85950 -0.05810 -0.04082
243.10000 0.84972 -0.03013 -0.01447
243.20000 0.81202 -0.07004 -0.00905
243.30000 0.88511 -0.13175 0.03180
243.40000 0.81493 -0.09398 -0.05869
243.50000 0.88802 0.04136 -0.00990
243.60000 0.80352 -0.00765 0.02201
243.70000 0.85523 -0.07859 -0.03600
243.80000 0.81897 0.11746 0.03882
243.90000 0.91119 -0.05267 -0.03227
244.00000 0.85612 -0.07181 -0.04538
244.10000 0.83894 -0.12942 -0.03415
244.20000 0.87374 -0.03975 -0.01758
244.30000 0.83154 0.03193 0.01310
244.40000 0.83254 0.12796 0.00118
244.50000 0.84777 0.09314 0.05187
244.60000 0.92426 0.16091 -0.03725
244.70000 0.75340 0.20493 -0.06120
244.80000 0.91511 0.23775 0.02521
244.90000 0.75353 0.04512 0.03196
245.00000 0.86918 -0.16864 0.01957
245.10000 0.83789 -0.24837 0.01548
245.20000 0.88871 -0.16002 0.05395
245.30000 0.85060 -0.07825 -0.02388
245.40000 0.75301 0.01793 0.00139
245.50000 0.89814 0.10162 0.01501
245.60000 0.78273 -0.08152 -0.03558
245.70000 0.86731 -0.15369 0.01479
245.80000 0.85626 -0.00974 -0.03891
245.90000 0.83988 0.10626 -0.00306
246.00000 0.80370 -0.07752 -0.02256
246.10000 0.81182 -0.13636 0.00189
246.20000 0.86113 -0.08584 0.07942
246.30000 0.88069 -0.17182 -0.02310
246.40000 0.81349 -0.04693 -0.01858
246.50000 0.88626 0.22792 0.00055
246.60000 0.82832 0.16031 0.01759
246.70000 0.89148 -0.00221 -0.03636
246.80000 0.79017 -0.04141 -0.01199
246.90000 0.95544 0.07961 0.06106
247.00000 0.78040 -0.02916 0.08289
247.10000 0.91202 -0.16574 -0.03815
247.20000 0.82473 -0.25880 -0.03240
247.30000 0.84656 -0.19196 0.06307
247.40000 0.90580 -0.10854 -0.03111
247.50000 0.75802 -0.00186 0.01716
247.60000 0.91067 0.04607 0.03142
247.70000 0.83769 -0.12270 -0.03378
247.80000 0.81145 -0.14861 0.01204
247.90000 0.83634 -0.10650 -0.07010
248.00000 0.79729 -0.08521 0.03268
248.10000 0.94561 -0.12891 -0.05258
248.20000 0.70411 -0.03869 0.08400
248.30000 0.91925 -0.03758 -0.02635
248.40000 0.81251 -0.15771 0.01301
248.50000 0.86259 -0.10730 0.00809
248.60000 0.81605 -0.08072 0.04550
248.70000 0.75800 0.01048 0.00690
248.80000 0.91782 0.21267 -0.07966
248.90000 0.77938 0.22616 0.03983
249.00000 0.93207 0.06257 0.00296
249.10000 0.76163 0.16554 -0.01653
249.20000 0.92396 0.19278 -0.01515
249.30000 0.89181 0.10500 0.03984
249.40000 0.81812 0.02799 0.00929
249.50000 0.89362 -0.11860 -0.00730
249.60000 0.77243 -0.15042 0.03521
249.70000 0.90002 -0.11287 0.00677
249.80000 0.70155 -0.13365 0.04826
249.90000 0.91626 -0.09624 -0.06360
250.00000 0.82365 0.07679 0.01543
250.10000 0.89243 0.20116 -0.03806
250.20000 0.85282 0.08890 -0.02181
250.30000 0.90584 0.06793 0.03694
250.40000 0.81423 0.15110 0.01111
250.50000 0.92366 0.19836 -0.05481
250.60000 0.70770 0.26968 -0.00780
250.70000 0.92614 0.22909 0.04630
250.80000 0.84067 0.04870 -0.00031
250.90000 0.83946 -0.03453 0.02210
251.00000 0.89899 -0.07100 0.01903
251.10000 0.79639 0.04154 -0.00670
251.20000 0.90921 0.06983 0.02566
251.30000 0.89004 0.14779 -0.01614
251.40000 0.88490 0.24677 -0.06750
251.50000 0.83169 0.17697 -0.02516
251.60000 0.78093 0.11724 -0.01316
251.70000 0.93811 0.04713 0.01530
251.80000 0.76554 -0.25617 0.05006
251.90000 0.86386 -0.38094 0.00003
252.00000 0.87641 -0.15048 0.01327
252.10000 0.80119 -0.14138 -0.02250
252.20000 0.89470 -0.33210 -0.01740
252.30000 0.80220 -0.09880 0.02622
252.40000 0.87508 0.28100 -0.04342
252.50000 0.79391 0.29865 -0.01316
252.60000 0.86837 -0.02405 0.01078
252.70000 0.85116 -0.18889 0.01112
252.80000 0.89294 -0.13486 0.03717
252.90000 0.82210 -0.17265 -0.02952
253.00000 0.87744 -0.24414 0.01448
253.10000 0.74328 -0.24123 0.01770
253.20000 0.89683 0.04153 -0.01783
253.30000 0.82228 0.19365 -0.03671
253.40000 0.81727 0.05384 0.00558
253.50000 0.85794 -0.18896 0.06525
253.60000 0.84142 -0.30911 -0.01044
253.70000 0.86945 -0.04865 -0.05284
253.80000 0.87167 0.19471 -0.01610
253.90000 0.78692 0.30766 0.01894
254.00000 0.86940 0.15775 -0.00113
254.10000 0.79896 -0.03228 0.05377
254.20000 0.83603 -0.21690 -0.00790
254.30000 0.86225 -0.15182 -0.01102
254.40000 0.82082 -0.11889 -0.00779
254.50000 0.90136 -0.01964 0.00754
254.60000 0.76323 0.06606 -0.02093
254.70000 0.93751 0.20859 -0.02304
254.80000 0.85044 0.35060 0.03096
254.90000 0.83845 0.16102 -0.04905
255.00000 0.86088 0.02206 0.01440
255.10000 0.84373 -0.22406 0.01878
255.20000 0.85581 -0.26142 -0.00640
255.30000 0.83253 -0.04701 0.00700
255.40000 0.91208 -0.03100 0.04639
255.50000 0.83751 0.04528 -0.02720
255.60000 0.86486 0.27875 -0.00907
255.70000 0.85689 0.36097 0.03663
255.80000 0.82862 0.26927 -0.02385
255.90000 0.88851 0.21335 0.00109
256.00000 0.80473 0.11363 -0.00018
256.10000 0.84520 0.21320 -0.01298
256.20000 0.81965 0.26570 0.02641
256.30000 0.79272 -0.06407 -0.05267
256.40000 0.87878 -0.28538 -0.01797
256.50000 0.80605 -0.17140 -0.00378
256.60000 0.86877 0.07900 0.04606
256.70000 0.86472 0.01937 0.00703
256.80000 0.77080 0.02098 0.00929
256.90000 0.89430 0.02343 -0.01979
257.00000 0.83515 0.06538 0.02030
257.10000 0.76422 0.09847 -0.03051
257.20000 0.92178 0.08574 -0.05085
257.30000 0.81050 -0.02884 0.04205
257.40000 0.86710 0.05166 0.04575
257.50000 0.78776 -0.04697 -0.04242
257.60000 0.93806 -0.23017 0.00216
257.70000 0.79590 -0.10982 0.01620
257.80000 0.82248 0.22892 0.04137
257.90000 0.89294 0.17739 0.02416
258.00000 0.81302 0.02633 0.02602
258.10000 0.81508 -0.04478 0.05639
258.20000 0.91221 -0.16971 -0.00474
258.30000 0.82999 -0.11907 -0.02694
258.40000 0.89103 0.04775 0.00702
258.50000 0.77367 -0.09177 0.00558
258.60000 0.96063 -0.19273 -0.04742
258.70000 0.81853 -0.06287 -0.02197
258.80000 0.85254 0.04359 0.02780
258.90000 0.77823 -0.22504 0.04989
259.00000 0.88126 -0.32939 -0.07031
259.10000 0.83616 -0.08610 -0.00378
259.20000 0.84573 0.05797 -0.02900
259.30000 0.86541 0.10283 0.04091
259.40000 0.84780 0.22890 -0.02465
259.50000 0.83309 0.11169 -0.05360
259.60000 0.90463 -0.07966 -0.02133
259.70000 0.75402 0.04779 0.01044
259.80000 0.90321 -0.02854 -0.00327
259.90000 0.83930 -0.03421 0.05752
260.00000 0.82123 0.08543 -0.04826
260.10000 0.84412 0.12958 0.06948
260.20000 0.81622 0.13835 0.01202
260.30000 0.86215 0.09729 -0.02497
260.40000 0.76261 0.19536 0.04112
260.50000 0.92688 0.16742 -0.00804
260.60000 0.83800 0.07003 -0.09138
260.70000 0.88499 -0.05428 0.07733
260.80000 0.83523 0.14845 0.00193
260.90000 0.87873 0.18132 -0.06729
261.00000 0.81798 0.23748 0.05828
261.10000 0.90770 0.17932 0.00848
261.20000 0.83105 0.13508 -0.01633
261.30000 0.85323 -0.01436 0.00500
261.40000 0.79660 -0.15457 0.03520
261.50000 0.83923 -0.16796 -0.00518
261.60000 0.77776 -0.11897 -0.03273
261.70000 0.91574 0.00085 0.02849
261.80000 0.76688 0.10083 0.01476
261.90000 0.86602 0.06317 -0.03334
262.00000 0.82935 -0.01211 0.02398
262.10000 0.84824 -0.05449 -0.04983
262.20000 0.83582 0.05173 0.04516
262.30000 0.84690 0.19378 0.02086
262.40000 0.86410 0.16068 -0.00356
262.50000 0.86790 0.13146 0.01283
262.60000 0.82096 0.01807 -0.02698
262.70000 0.80757 -0.13671 -0.07020
262.80000 0.93961 -0.16202 0.02691
262.90000 0.77114 -0.09443 -0.01135
263.00000 0.93550 -0.00155 -0.00786
263.10000 0.84074 0.03089 -0.00708
263.20000 0.95297 0.04925 0.03254
263.30000 0.76422 -0.04521 0.03410
263.40000 0.83868 0.17108 -0.00814
263.50000 0.86478 0.29492 -0.08775
263.60000 0.76290 0.07340 0.08302
263.70000 0.91494 -0.03712 0.04636
263.80000 0.80434 -0.18787 -0.05032
263.90000 0.87619 -0.09766 0.02330
264.00000 0.81664 -0.02686 0.00418
264.10000 0.88908 -0.03649 0.02526
264.20000 0.82064 -0.02584 -0.02130
264.30000 0.85689 0.24622 0.00989
264.40000 0.91095 0.18635 0.03135
264.50000 0.81226 -0.01397 0.02767
264.60000 0.89385 -0.13663 -0.00193
264.70000 0.83159 -0.06563 0.02932
264.80000 0.85843 -0.12423 -0.00884
264.90000 0.78281 -0.02747 -0.00547
265.00000 0.86940 -0.15242 0.06722
265.10000 0.87343 -0.24950 -0.05310
265.20000 0.80532 -0.17583 -0.02882
265.30000 0.88578 -0.02899 0.01788
265.40000 0.88362 -0.03742 0.00420
265.50000 0.84475 -0.14011 0.02696
265.60000 0.78410 -0.15266 -0.00605
265.70000 0.88245 0.02862 0.00536
265.80000 0.85831 0.07076 -0.03615
265.90000 0.81175 0.06984 0.00940
266.00000 0.92262 0.04056 0.00645
266.10000 0.76611 -0.03004 0.03510
266.20000 0.89642 0.07810 -0.05234
266.30000 0.83225 -0.05028 -0.05114
266.40000 0.92915 0.00654 0.01509
266.50000 0.73586 -0.01390 -0.01997
266.60000 0.87504 -0.04258 0.00138
266.70000 0.81611 -0.13648 -0.02344
266.80000 0.79313 -0.11448 0.03565
266.90000 0.87962 0.06202 0.00527
267.00000 0.87927 0.16942 -0.04382
267.10000 0.90796 0.15637 0.08538
267.20000 0.79361 0.09776 -0.00623
267.30000 0.93146 0.06888 -0.04924
267.40000 0.82382 0.14971 0.03084
267.50000 0.84548 0.10407 0.01102
267.60000 0.85847 0.00678 -0.05977
267.70000 0.87445 -0.11394 0.05853
267.80000 0.87223 -0.07504 0.01407
267.90000 0.80461 0.20131 -0.00164
268.00000 0.92930 0.28800 -0.04643
268.10000 0.80821 0.19067 0.04252
268.20000 0.80432 0.11711 0.02318
268.30000 0.92489 0.24843 0.08094
268.40000 0.79428 0.25272 -0.06841
268.50000 0.90405 0.17931 0.03494
268.60000 0.78274 -0.01931 0.02000
268.70000 0.83728 -0.33810 -0.01718
268.80000 0.91411 -0.25442 0.01843
268.90000 0.81308 0.15961 -0.09301
269.00000 0.85388 0.28721 0.00547
269.10000 0.87277 0.09473 0.06023
269.20000 0.81002 0.08435 -0.01271
269.30000 0.88791 0.11653 -0.03086
269.40000 0.83275 0.08269 0.05643
269.50000 0.79903 -0.07210 0.01752
269.60000 0.89656 -0.25030 -0.03658
269.70000 0.81858 -0.23575 0.06147
269.80000 0.85413 -0.18198 0.01668
269.90000 0.82097 -0.08700 -0.09499
270.00000 0.86184 0.00576 -0.00220
270.10000 0.84814 0.07921 0.03677
270.20000 0.83529 0.09924 -0.03743
270.30000 0.87274 0.01303 -0.07638
270.40000 0.86004 -0.02529 0.02781
270.50000 0.84939 -0.11036 0.00403
270.60000 0.84916 -0.10006 -0.02846
270.70000 0.79312 -0.01761 0.02066
270.80000 0.85586 -0.18998 -0.02498
270.90000 0.84310 -0.28349 0.05924
271.00000 0.85069 -0.07330 -0.01116
271.10000 0.83732 -0.11528 -0.05778
271.20000 0.87736 -0.14159 0.04725
271.30000 0.87671 -0.19657 -0.04003
271.40000 0.78818 -0.16522 -0.02899
271.50000 0.83532 -0.05770 0.01227
271.60000 0.89613 0.04915 0.04772
271.70000 0.81885 0.10824 -0.00830
271.80000 0.84024 -0.01993 -0.04091
271.90000 0.86586 0.05396 0.02871
272.00000 0.80635 0.16368 -0.03561
272.10000 0.88987 0.18333 -0.02660
272.20000 0.75267 0.12551 0.00615
272.30000 0.95748 0.00512 -0.01418
272.40000 0.78355 0.01267 0.04084
272.50000 0.92784 0.02309 -0.05260
272.60000 0.83201 -0.00631 -0.01627
272.70000 0.81209 0.01540 0.02139
272.80000 0.79302 0.06305 0.05640
272.90000 0.93155 0.06352 -0.04029
273.00000 0.78232 -0.07769 0.00848
273.10000 0.89116 -0.19191 0.07649
273.20000 0.85588 0.01939 -0.01167
273.30000 0.87888 0.00783 -0.03809
273.40000 0.86268 -0.00012 -0.02525
273.50000 0.77310 -0.01364 -0.01061
273.60000 0.93661 0.18663 0.04433
273.70000 0.78187 0.22652 0.02354
273.80000 0.84282 -0.01586 -0.03682
273.90000 0.86035 -0.22192 -0.00957
274.00000 0.84374 -0.17866 0.05471
274.10000 0.86851 -0.11741 -0.06364
274.20000 0.85862 -0.08198 -0.02577
274.30000 0.81212 -0.17282 0.07117
274.40000 0.82960 -0.05377 0.01237
274.50000 0.82405 0.02139 -0.01904
274.60000 0.85397 0.03488 -0.04370
274.70000 0.86216 0.07395 -0.00927
274.80000 0.80646 -0.05494 0.05797
274.90000 0.88342 -0.10734 -0.01295
275.00000 0.80561 -0.12403 0.03215
275.10000 0.87123 -0.02901 -0.02282
275.20000 0.85497 0.06654 0.01418
275.30000 0.80486 0.10889 -0.04562
275.40000 0.91977 -0.04343 0.02935
275.50000 0.76769 -0.25406 -0.07736
275.60000 0.88565 -0.21431 0.02153
275.70000 0.84255 -0.17935 0.05647
275.80000 0.82022 -0.19453 0.00052
275.90000 0.81968 -0.12885 0.07082
276.00000 0.83513 -0.09971 -0.00768
276.10000 0.93359 0.16261 -0.00077
276.20000 0.76914 0.10989 0.04496
276.30000 0.87360 0.06042 -0.01163
276.40000 0.85466 -0.01592 -0.00375
276.50000 0.83828 0.00956 0.07801
276.60000 0.81572 0.07090 -0.04623
276.70000 0.83945 0.02762 -0.01501
276.80000 0.79828 -0.03474 0.05005
276.90000 0.81838 0.08075 0.01670
277.00000 0.89635 0.25136 -0.06006
277.10000 0.85619 0.13967 0.02076
277.20000 0.76269 -0.03197 -0.01631
277.30000 0.85090 0.03760 -0.00868
277.40000 0.87452 -0.09129 0.02016
277.50000 0.83957 0.01559 0.03655
277.60000 0.83652 0.18611 -0.01601
277.70000 0.90958 0.15904 -0.02230
277.80000 0.76881 -0.00392 0.01892
277.90000 0.84977 -0.17279 -0.01941
278.00000 0.85453 -0.14487 -0.00648
278.10000 0.89033 0.06454 -0.04630
278.20000 0.79869 0.22593 0.00359
278.30000 0.87937 0.09715 0.04156
278.40000 0.77945 -0.10946 -0.01782
278.50000 0.90442 -0.29954 0.04275
278.60000 0.77833 -0.12888 0.03738
278.70000 0.90973 -0.01352 0.00392
278.80000 0.83754 0.13476 0.03641
278.90000 0.87302 0.14807 0.02060
279.00000 0.84807 0.14629 -0.08598
279.10000 0.88670 -0.01390 0.00456
279.20000 0.81265 -0.05719 0.02397
279.30000 0.88716 -0.07781 0.03335
279.40000 0.87070 -0.20009 -0.03764
279.50000 0.86679 -0.19469 0.01841
279.60000 0.84906 -0.17159 0.00465
279.70000 0.82520 0.08563 0.03065
279.80000 0.82243 0.18283 -0.01943
279.90000 0.84878 0.25256 -0.04149
280.00000 0.74133 0.16038 -0.00363
280.10000 0.90142 0.19434 -0.01008
280.20000 0.77371 0.30353 0.01021
280.30000 0.85670 0.19472 -0.03323
280.40000 0.82310 0.10872 0.08047
280.50000 0.86890 0.25204 -0.05075
280.60000 0.85262 0.16011 -0.01421
280.70000 0.84508 -0.03804 0.01152
280.80000 0.83772 -0.23258 0.05403
280.90000 0.85076 -0.10378 -0.06924
281.00000 0.79148 0.17930 0.00321
281.10000 0.84518 0.28457 0.01187
281.20000 0.86453 0.10500 0.00120
281.30000 0.85125 -0.06789 0.02619
281.40000 0.85033 -0.01571 0.06288
281.50000 0.83602 -0.14719 -0.04514
281.60000 0.82167 -0.35807 -0.03480
281.70000 0.87572 -0.28334 -0.04057
281.80000 0.84970 -0.11855 0.00333
281.90000 0.82128 0.01947 0.00010
282.00000 0.84011 0.02884 0.01077
282.10000 0.84571 -0.14791 0.01686
282.20000 0.90016 -0.17574 -0.11717
282.30000 0.73120 -0.13044 0.02184
282.40000 0.90121 0.04755 0.03590
282.50000 0.79059 -0.09139 0.00928
282.60000 0.88965 -0.04097 0.03623
282.70000 0.82798 -0.12301 -0.00764
282.80000 0.81946 0.00498 0.00586
282.90000 0.90322 0.39310 0.06568
283.00000 0.84439 0.34245 -0.08347
283.10000 0.81541 0.13582 0.00773
283.20000 0.83531 -0.05541 -0.02882
283.30000 0.88092 -0.02157 0.00975
283.40000 0.83818 0.03462 0.06433
283.50000 0.92565 -0.03206 -0.01852
283.60000 0.83358 -0.23822 0.01891
283.70000 0.87239 -0.21357 0.00708
283.80000 0.88358 -0.25831 -0.04664
283.90000 0.86631 -0.09551 0.09955
284.00000 0.82169 0.04464 -0.02867
284.10000 0.96884 -0.08148 0.02860
284.20000 0.75416 -0.22098 0.00578
284.30000 0.88377 -0.25382 0.03502
284.40000 0.91312 -0.09461 -0.01284
284.50000 0.77301 -0.00647 -0.06217
284.60000 0.95826 -0.01747 -0.01830
284.70000 0.75712 -0.04901 0.03007
284.80000 0.86071 0.06150 0.05552
284.90000 0.83253 -0.02296 -0.03162
285.00000 0.82323 -0.00420 -0.03350
285.10000 0.85831 -0.07232 0.03555
285.20000 0.80994 0.03862 -0.04120
285.30000 0.83006 0.14205 0.05248
285.40000 0.88275 0.03177 0.04564
285.50000 0.88825 -0.12328 -0.02435
285.60000 0.81038 -0.14478 -0.06108
285.70000 0.86772 -0.10785 -0.02508
285.80000 0.79283 -0.12364 0.05913
285.90000 0.90073 0.00766 0.07289
286.00000 0.85221 -0.01845 -0.03029
286.10000 0.85999 0.00389 -0.00682
286.20000 0.87619 0.13314 -0.01481
286.30000 0.84998 0.06361 0.01067
286.40000 0.81718 -0.01994 -0.04069
286.50000 0.86264 -0.00385 0.05646
286.60000 0.80738 -0.12083 -0.02752
286.70000 0.81680 -0.18052 -0.01906
286.80000 0.84260 -0.08266 0.02126
286.90000 0.85453 -0.14324 0.00015
287.00000 0.83956 -0.25465 -0.03267
287.10000 0.81089 -0.15988 -0.02322
287.20000 0.82941 0.10433 0.13422
287.30000 0.81593 0.06074 -0.02096
287.40000 0.88910 -0.00239 -0.08748
287.50000 0.80668 0.17244 0.06674
287.60000 0.89049 0.18758 0.00468
287.70000 0.81556 -0.07775 -0.03953
287.80000 0.87026 -0.11277 0.00460
287.90000 0.82450 0.00804 -0.00129
288.00000 0.83599 0.12046 -0.05195
288.10000 0.89705 -0.03760 0.05048
288.20000 0.84067 -0.02656 0.06793
288.30000 0.79189 -0.04390 -0.08566
288.40000 0.89998 -0.03905 0.05462
288.50000 0.84530 0.03292 0.05735
288.60000 0.87044 -0.00410 -0.09443
288.70000 0.81119 -0.06756 -0.02733
288.80000 0.92758 -0.22938 0.04137
288.90000 0.81774 -0.23279 -0.04199
289.00000 0.86015 -0.02649 -0.00102
289.10000 0.80824 0.23165 -0.01528
289.20000 0.89645 0.06032 0.08077
289.30000 0.74909 -0.04240 0.00414
289.40000 0.93651 -0.19475 -0.12111
289.50000 0.84877 -0.23698 0.01630
289.60000 0.82499 -0.06179 0.05352
289.70000 0.86328 -0.03436 -0.02740
289.80000 0.82674 -0.04782 0.05711
289.90000 0.83221 -0.11831 -0.01280
290.00000 0.86347 -0.12558 -0.00390
290.10000 0.80539 -0.03061 -0.01926
290.20000 0.84620 0.04440 -0.01366
290.30000 0.77847 0.04823 0.01424
290.40000 0.93328 -0.00490 -0.03490
290.50000 0.78955 0.11208 0.02913
290.60000 0.88789 0.16133 0.00065
290.70000 0.86959 0.10040 -0.02970
290.80000 0.84700 -0.06299 -0.02734
290.90000 0.86443 -0.17246 0.08176
291.00000 0.80381 -0.30995 0.01293
291.10000 0.86421 0.00358 -0.00566
291.20000 0.80546 0.29839 -0.03322
291.30000 0.86398 0.37065 0.00964
291.40000 0.77735 0.28567 -0.01713
291.50000 0.90778 0.15189 -0.02656
291.60000 0.80408 0.06565 0.04970
291.70000 0.89944 0.03381 0.01452
291.80000 0.87269 0.08077 -0.04749
291.90000 0.87118 0.05397 -0.05583
292.00000 0.92056 0.17820 0.02827
292.10000 0.72446 0.38612 -0.01263
292.20000 0.93922 0.29925 -0.00999
292.30000 0.82063 -0.05028 0.03096
292.40000 0.84453 -0.25397 -0.01342
292.50000 0.85723 -0.34601 0.00203
292.60000 0.79125 -0.33315 0.00751
292.70000 0.92325 -0.05468 -0.00593
292.80000 0.75890 0.09938 0.01268
292.90000 0.88691 0.13412 0.01681
293.00000 0.85336 0.17449 0.02071
293.10000 0.82508 -0.04720 -0.05595
293.20000 0.87709 -0.07630 -0.00112
293.30000 0.81904 0.00924 0.02488
293.40000 0.88495 0.07948 -0.02386
293.50000 0.86600 -0.03610 0.02757
293.60000 0.83934 -0.08142 -0.02107
293.70000 0.92935 0.02870 0.00609
293.80000 0.78893 0.02762 0.08222
293.90000 0.90847 0.07007 -0.08556
294.00000 0.84234 0.13928 0.02568
294.10000 0.81739 0.17277 -0.04917
294.20000 0.89339 0.01420 -0.01061
294.30000 0.77576 -0.07920 0.07070
294.40000 0.85330 -0.11598 -0.03518
294.50000 0.87432 -0.06982 0.06634
294.60000 0.88435 -0.03581 -0.04681
294.70000 0.79469 -0.01920 -0.01732
294.80000 0.91349 0.10907 0.01569
294.90000 0.88001 0.01338 0.09711
295.00000 0.82634 -0.06437 -0.02379
295.10000 0.87066 0.10625 -0.00451
295.20000 0.80994 0.15282 -0.02120
295.30000 0.85486 -0.01006 0.00064
295.40000 0.80751 -0.07923 -0.05001
295.50000 0.82197 -0.03308 0.04113
295.60000 0.93951 0.08636 0.01799
295.70000 0.80380 -0.05028 -0.03857
295.80000 0.88549 -0.13361 -0.03990
295.90000 0.85503 0.02740 0.10001
296.00000 0.83497 0.04649 -0.06131
296.10000 0.82091 0.19329 0.00444
296.20000 0.83183 0.23901 -0.00681
296.30000 0.89215 0.09468 0.04303
296.40000 0.81315 0.02771 -0.03658
296.50000 0.86656 -0.02984 -0.01126
296.60000 0.80705 -0.07315 0.02036
296.70000 0.93218 -0.17103 -0.01042
296.80000 0.82851 -0.19342 -0.01698
296.90000 0.77988 -0.20881 0.03982
297.00000 0.88413 -0.17124 -0.01758
297.10000 0.79925 0.08104 -0.12362
297.20000 0.82546 0.21809 -0.00465
297.30000 0.92978 0.07826 0.03958
297.40000 0.82577 0.04375 -0.04536
297.50000 0.90854 -0.00442 0.04269
297.60000 0.81942 0.09796 0.04094
297.70000 0.80837 0.28730 -0.07790
297.80000 0.90697 0.09918 0.01636
297.90000 0.81260 -0.16719 0.02279
298.00000 0.84851 -0.23730 0.00906
298.10000 0.86905 -0.11238 0.00282
298.20000 0.84678 -0.12594 0.02495
298.30000 0.85325 -0.10563 0.05457
298.40000 0.89789 -0.02397 -0.07218
298.50000 0.77030 0.09554 -0.03143
298.60000 0.92344 0.47480 0.04660
298.70000 0.81149 0.48813 -0.01263
298.80000 0.85805 0.10241 -0.03335
298.90000 0.88077 -0.22400 0.06258
299.00000 0.88217 -0.25687 -0.00408
299.10000 0.79267 -0.09663 -0.02472
299.20000 0.81312 0.07441 0.02774
299.30000 0.89450 0.16095 -0.02491
299.40000 0.80240 -0.04988 -0.08444
299.50000 0.87814 -0.24318 0.02039
299.60000 0.89691 -0.42362 -0.00921
299.70000 0.84164 -0.34417 0.00649
299.80000 0.85610 -0.27979 0.05183
299.90000 0.82484 -0.30738 -0.01881
300.00000 0.82823 -0.18055 -0.02585
300.10000 0.84890 0.11963 0.03827
300.20000 0.79250 0.20732 0.01498
300.30000 0.91971 -0.14611 0.00164
300.40000 0.83303 -0.23097 0.02190
300.50000 0.90725 -0.04007 0.07614
300.60000 0.87838 0.04332 -0.02945
300.70000 0.78443 0.02975 -0.00036
300.80000 0.90096 0.11374 0.03617
300.90000 0.85710 0.13979 -0.02476
301.00000 0.84123 0.13403 0.02369
301.10000 0.81351 -0.00385 -0.02183
301.20000 0.84342 0.11543 -0.07309
301.30000 0.83058 0.27389 -0.00130
301.40000 0.82772 0.01285 0.08094
301.50000 0.88513 -0.05901 0.01320
301.60000 0.87102 0.21426 -0.10703
301.70000 0.80773 0.23858 -0.00480
301.80000 0.95907 0.17522 0.03965
301.90000 0.82267 0.09853 -0.09205
302.00000 0.84547 0.06945 0.03073
302.10000 0.82233 0.05529 0.01534
302.20000 0.86496 -0.10982 0.01670
302.30000 0.82810 -0.17952 -0.02124
302.40000 0.84208 -0.25760 0.01142
302.50000 0.91853 -0.20985 -0.02996
302.60000 0.82991 -0.10355 0.01755
302.70000 0.79069 -0.00978 -0.00205
302.80000 0.92309 0.14336 0.05149
302.90000 0.90424 0.25736 -0.00686
303.00000 0.80154 -0.00794 -0.03609
303.10000 0.84900 -0.20513 0.00849
303.20000 0.85636 -0.43021 -0.00122
303.30000 0.79121 -0.40901 -0.02762
303.40000 0.86110 -0.15308 0.03364
303.50000 0.85976 -0.06536 0.00099
303.60000 0.82915 -0.11129 0.02804
303.70000 0.84607 -0.00393 -0.03378
303.80000 0.86114 0.24518 -0.03491
303.90000 0.82800 0.38701 0.04061
304.00000 0.86093 0.10072 0.06291
304.10000 0.84781 -0.07150 -0.00060
304.20000 0.87830 0.01880 -0.02012
304.30000 0.81223 0.23670 -0.01519
304.40000 0.85453 0.18971 0.01228
304.50000 0.88482 0.13735 -0.02679
304.60000 0.80225 0.32257 0.01410
304.70000 0.88446 0.15815 0.04033
304.80000 0.87949 -0.21064 -0.01629
304.90000 0.86419 -0.17467 -0.01587
305.00000 0.86592 0.14764 -0.02561
305.10000 0.79723 0.42521 0.07566
305.20000 0.82626 0.32077 0.01089
305.30000 0.84089 0.07764 -0.01711
305.40000 0.91017 -0.06052 -0.01805
305.50000 0.86869 0.01860 -0.02487
305.60000 0.84970 0.22417 0.02501
305.70000 0.91662 0.08741 -0.05537
305.80000 0.81972 0.10030 0.01098
305.90000 0.84735 0.12618 0.00650
306.00000 0.87907 0.03128 0.00726
306.10000 0.79527 -0.18211 0.05656
306.20000 0.91003 -0.11901 0.01188
306.30000 0.80677 -0.00626 0.00389
306.40000 0.82596 0.06584 0.01758
306.50000 0.87194 0.26705 -0.03982
306.60000 0.82843 0.08643 -0.02419
306.70000 0.82362 -0.09610 -0.04606
306.80000 0.86820 -0.14741 0.05668
306.90000 0.83727 -0.15453 0.07151
307.00000 0.76425 -0.20498 -0.03370
307.10000 0.82902 -0.04616 -0.06944
307.20000 0.83058 0.09084 0.04833
307.30000 0.82408 0.13102 0.01339
307.40000 0.89297 -0.12007 -0.02107
307.50000 0.77740 -0.19666 -0.01952
307.60000 0.89650 -0.22542 0.01390
307.70000 0.82170 -0.05063 -0.00072
307.80000 0.86818 0.10308 0.02703
307.90000 0.83806 0.21888 -0.02929
308.00000 0.77492 -0.02707 -0.02435
308.10000 0.89893 -0.18442 0.02921
308.20000 0.83977 -0.05608 0.02814
308.30000 0.80910 -0.21655 0.03767
308.40000 0.87667 -0.02849 -0.01649
308.50000 0.84228 0.19648 -0.03019
308.60000 0.82090 0.18855 0.01667
308.70000 0.83759 0.08351 0.01206
308.80000 0.88107 0.20170 -0.04918
308.90000 0.81918 0.18032 0.05846
309.00000 0.91381 0.07031 0.04330
309.10000 0.77484 0.06906 -0.05360
309.20000 0.91892 0.04599 0.03645
309.30000 0.84839 -0.11701 0.05175
309.40000 0.82910 -0.24356 -0.01313
309.50000 0.87980 -0.05731 -0.04476
309.60000 0.87720 0.13380 0.05707
309.70000 0.82139 0.29938 -0.01009
309.80000 0.89234 0.34357 0.00706
309.90000 0.86729 0.11162 0.04248
310.00000 0.81509 -0.16208 0.01167
310.10000 0.83461 -0.17065 -0.01533
310.20000 0.82139 -0.05371 0.05151
310.30000 0.91274 0.10811 -0.00349
310.40000 0.77945 0.14545 -0.05665
310.50000 0.86915 -0.02106 0.03264
310.60000 0.81371 0.07817 -0.00086
310.70000 0.85028 0.36208 0.04565
310.80000 0.87128 0.41515 -0.00237
310.90000 0.81056 0.26209 -0.03425
311.00000 0.86014 0.00731 0.00111
311.10000 0.75547 -0.13658 -0.00445
311.20000 0.80034 -0.10175 -0.02535
311.30000 0.89403 0.01000 -0.00775
311.40000 0.83247 0.36240 0.07387
311.50000 0.89255 0.34041 -0.03690
311.60000 0.80400 0.11113 -0.00476
311.70000 0.86742 0.16427 0.03099
311.80000 0.83697 0.08543 -0.02126
311.90000 0.91583 -0.00776 -0.03826
312.00000 0.84483 -0.09903 0.02544
312.10000 0.80905 -0.24238 -0.02433
312.20000 0.85241 -0.18949 0.02184
312.30000 0.81897 -0.14589 0.01498
312.40000 0.87270 0.00617 -0.04247
312.50000 0.84256 0.00418 -0.02079
312.60000 0.77903 -0.01172 0.07001
312.70000 0.90059 0.06245 -0.01978
312.80000 0.71987 -0.00036 -0.03290
312.90000 0.95670 -0.12291 0.03747
313.00000 0.82965 -0.00295 -0.02178
313.10000 0.86433 0.20624 -0.05855
313.20000 0.86600 0.35291 0.01467
313.30000 0.85689 0.25271 -0.03405
313.40000 0.88165 0.14262 0.00860
313.50000 0.78784 0.08310 0.02369
313.60000 0.91041 0.15384 0.00198
313.70000 0.81204 0.24571 -0.04971
313.80000 0.89242 0.12497 0.06220
313.90000 0.78152 -0.04967 -0.04098
314.00000 0.94420 -0.24670 -0.00838
314.10000 0.80321 -0.23300 0.01522
314.20000 0.88875 0.05791 0.04802
314.30000 0.83098 0.10891 -0.01219
314.40000 0.84070 -0.01006 0.02687
314.50000 0.82976 -0.09219 -0.00201
314.60000 0.78766 -0.23101 -0.03830
314.70000 0.90412 -0.02537 0.01407
314.80000 0.79803 0.11193 0.09692
314.90000 0.86024 0.00990 0.01092
315.00000 0.85885 -0.14241 0.00975
315.10000 0.85041 -0.06127 -0.05544
315.20000 0.80565 0.03621 0.03772
315.30000 0.91345 0.07667 0.01784
315.40000 0.70749 0.02075 -0.03996
315.50000 0.89162 -0.00190 0.02265
315.60000 0.83122 -0.05487 0.01049
315.70000 0.89861 0.16282 0.03449
315.80000 0.81339 0.22523 -0.03186
315.90000 0.87390 0.05056 -0.04418
316.00000 0.83596 -0.03426 0.01336
316.10000 0.84846 -0.00286 0.04184
316.20000 0.90469 -0.02438 -0.06382
316.30000 0.75694 0.06824 -0.01611
316.40000 0.91429 -0.01436 0.02914
316.50000 0.79268 -0.02794 -0.00486
316.60000 0.86719 0.02194 -0.05105
316.70000 0.82799 -0.08442 -0.00540
316.80000 0.86690 -0.19572 0.01258
316.90000 0.80634 -0.41368 0.00402
317.00000 0.88242 -0.25940 -0.03180
317.10000 0.79462 -0.08054 0.03290
317.20000 0.91917 0.02042 -0.03171
317.30000 0.79891 0.00150 0.00808
317.40000 0.84024 -0.06380 0.04533
317.50000 0.79635 -0.13038 -0.01716
317.60000 0.92448 -0.17763 -0.00104
317.70000 0.76551 -0.12708 0.07337
317.80000 0.81013 -0.00983 -0.02762
317.90000 0.90029 0.17215 -0.01796
318.00000 0.75484 0.17234 0.04654
318.10000 0.92544 0.09443 0.01121
318.20000 0.78172 0.07733 -0.00990
318.30000 0.86572 0.29270 -0.01906
318.40000 0.82369 0.31439 0.01325
318.50000 0.87877 0.18115 -0.01905
318.60000 0.83852 0.10076 -0.00140
318.70000 0.84987 0.06538 -0.02405
318.80000 0.86223 0.00218 0.06531
318.90000 0.80660 -0.07290 -0.03729
319.00000 0.88785 -0.06179 0.00386
319.10000 0.88473 0.00440 -0.00372
319.20000 0.79415 -0.06833 -0.01979
319.30000 0.89313 -0.01577 0.05203
319.40000 0.78374 -0.04212 0.00389
319.50000 0.85312 -0.01648 0.00139
319.60000 0.89072 0.01877 0.01693
319.70000 0.76683 0.05271 0.02214
319.80000 0.88565 -0.09561 -0.00334
319.90000 0.79274 -0.09004 -0.01668
320.00000 0.83058 0.12069 -0.02011
320.10000 0.86998 0.34095 -0.02159
320.20000 0.82388 0.34869 0.02787
320.30000 0.84095 0.15903 -0.01519
320.40000 0.84902 -0.05585 -0.04625
320.50000 0.91113 -0.20060 0.10060
320.60000 0.81608 -0.23631 -0.04046
320.70000 0.87753 0.00847 -0.05381
320.80000 0.87306 0.16599 0.04115
320.90000 0.82141 0.17255 0.01719
321.00000 0.83245 0.17879 -0.00991
321.10000 0.82790 0.00236 -0.05176
321.20000 0.88303 -0.11358 0.00622
321.30000 0.78233 0.14435 0.03236
321.40000 0.87659 0.12284 0.00408
321.50000 0.90246 0.03642 -0.01725
321.60000 0.79087 -0.01102 -0.04443
321.70000 0.89026 0.09695 0.07738
321.80000 0.89149 0.08488 0.06595
321.90000 0.81052 0.25858 -0.08543
322.00000 0.85224 0.28525 -0.03318
322.10000 0.86402 0.22236 0.04018
322.20000 0.82500 0.07553 -0.07527
322.30000 0.77681 0.10624 -0.01369
322.40000 0.89131 -0.06267 0.05019
322.50000 0.81691 -0.05655 -0.02593
322.60000 0.88540 -0.04019 -0.03031
322.70000 0.81173 -0.10919 0.00999
322.80000 0.82339 -0.09591 0.06522
322.90000 0.82380 -0.00261 -0.02294
323.00000 0.89302 -0.12701 -0.00324
323.10000 0.80455 -0.21284 -0.00672
323.20000 0.79381 -0.22330 -0.01826
323.30000 0.85384 -0.32468 0.05404
323.40000 0.89281 -0.16230 -0.02167
323.50000 0.82441 0.11501 0.04240
323.60000 0.84974 0.36482 0.03066
323.70000 0.88827 0.35941 -0.03180
323.80000 0.86879 0.16061 0.03379
323.90000 0.88591 0.08887 -0.03004
324.00000 0.81141 0.18684 -0.06479
324.10000 0.85560 0.16461 0.04737
324.20000 0.79103 -0.15997 -0.03307
324.30000 0.88807 -0.23137 -0.00515
324.40000 0.81687 -0.14160 0.07305
324.50000 0.93563 -0.02700 0.00274
324.60000 0.80393 0.09957 -0.00720
324.70000 0.84526 0.10688 0.03470
324.80000 0.91797 0.30517 -0.01063
324.90000 0.81681 0.26033 -0.00761
325.00000 0.88245 0.05762 0.05009
325.10000 0.84290 -0.13166 -0.06002
325.20000 0.87581 -0.17658 -0.06563
325.30000 0.80296 -0.03290 0.00409
325.40000 0.78451 -0.12809 0.04556
325.50000 0.96042 -0.18349 0.01171
325.60000 0.72006 -0.05027 0.01411
325.70000 0.91356 0.04212 0.04505
325.80000 0.72610 0.06194 -0.03401
325.90000 0.87117 0.03894 0.00499
326.00000 0.79401 -0.05545 0.00004
326.10000 0.86605 0.18184 0.00948
326.20000 0.84040 0.12837 -0.05196
326.30000 0.84912 -0.17179 0.04779
326.40000 0.84328 -0.06160 0.06766
326.50000 0.80741 -0.05898 -0.07755
326.60000 0.88012 0.12474 -0.05448
326.70000 0.80117 0.33183 0.07141
326.80000 0.81287 0.13166 0.00097
326.90000 0.83522 0.06515 -0.03677
327.00000 0.85145 0.09576 0.03349
327.10000 0.88821 0.10568 0.03924
327.20000 0.85011 -0.18414 -0.02144
327.30000 0.84026 -0.34871 -0.02697
327.40000 0.82131 -0.19490 -0.00201
327.50000 0.89613 -0.03003 0.04683
327.60000 0.91197 -0.00926 -0.04911
327.70000 0.84900 -0.09780 -0.04346
327.80000 0.87877 0.09255 0.00520
327.90000 0.80062 -0.04688 0.04674
328.00000 0.85137 -0.27185 -0.01380
328.10000 0.88509 -0.13688 0.01561
328.20000 0.85394 0.12792 -0.00562
328.30000 0.87467 0.18888 0.00910
328.40000 0.78650 0.00205 0.02242
328.50000 0.88328 0.05467 -0.06501
328.60000 0.82572 0.12097 0.02295
328.70000 0.82823 0.18140 0.02595
328.80000 0.87143 0.08868 -0.00272
328.90000 0.85429 0.01170 0.01741
329.00000 0.80884 -0.13600 -0.01419
329.10000 0.87622 -0.19258 -0.01050
329.20000 0.82999 -0.17137 -0.02041
329.30000 0.83521 -0.04064 0.02652
329.40000 0.86757 0.00005 0.01618
329.50000 0.79637 0.06921 -0.00149
329.60000 0.92178 0.14142 -0.00285
329.70000 0.81480 -0.04499 0.01632
329.80000 0.85008 -0.18184 -0.03752
329.90000 0.76520 -0.24142 0.01843
330.00000 0.87541 -0.12046 -0.00053
330.10000 0.77458 0.12316 -0.04851
330.20000 0.89914 0.18090 0.00238
330.30000 0.80911 0.11789 0.05187
330.40000 0.85552 -0.05505 -0.02655
330.50000 0.83273 -0.19734 -0.00145
330.60000 0.91661 -0.16023 0.09583
330.70000 0.80253 -0.04694 -0.03507
330.80000 0.85475 -0.09397 -0.09108
330.90000 0.89714 -0.16338 0.03397
331.00000 0.74104 -0.23118 0.01998
331.10000 0.97652 0.02826 -0.05852
331.20000 0.74713 -0.01539 0.02011
331.30000 0.86443 -0.26369 0.05696
331.40000 0.91108 -0.27953 -0.03834
331.50000 0.74397 -0.29303 -0.05189
331.60000 0.99967 -0.12179 0.00527
331.70000 0.77886 0.02927 0.02848
331.80000 0.86707 0.10110 0.00992
331.90000 0.95028 0.05116 0.01129
332.00000 0.73745 0.02384 0.00546
332.10000 0.90803 -0.07138 -0.03966
332.20000 0.83554 -0.03684 -0.01434
332.30000 0.86114 -0.17187 -0.03043
332.40000 0.85732 -0.16152 0.01410
332.50000 0.83148 -0.03650 0.00113
332.60000 0.80448 0.00935 -0.02361
332.70000 0.94046 0.20401 -0.04835
332.80000 0.75360 0.24139 0.00229
332.90000 0.83575 0.15416 0.03171
333.00000 0.87529 0.07430 -0.01986
333.10000 0.79294 -0.04712 -0.03973
333.20000 0.94878 -0.06392 -0.02474
333.30000 0.77964 -0.16663 0.01262
333.40000 0.85040 -0.04806 0.00902
333.50000 0.89805 0.28813 0.01145
333.60000 0.85274 0.32868 0.07201
333.70000 0.82200 0.04912 -0.02192
333.80000 0.88510 0.00500 -0.08139
333.90000 0.85867 0.05221 0.05210
334.00000 0.82996 0.19072 -0.01378
334.10000 0.90124 0.10725 -0.04210
334.20000 0.84493 0.11881 -0.03169
334.30000 0.87857 0.08395 0.00322
334.40000 0.83246 0.05138 0.00922
334.50000 0.89465 0.11820 -0.05710
334.60000 0.75626 0.12511 -0.01283
334.70000 0.89506 -0.07720 -0.01538
334.80000 0.93734 -0.14664 0.04224
334.90000 0.78589 -0.10867 -0.02891
335.00000 0.87220 0.10109 -0.00314
335.10000 0.85432 0.11789 -0.00154
335.20000 0.79055 0.07636 -0.00795
335.30000 0.92517 -0.03974 0.01659
335.40000 0.82389 -0.23713 0.00100
335.50000 0.89862 -0.13412 -0.01565
335.60000 0.77131 -0.07014 0.01194
335.70000 0.91621 -0.23480 0.05167
335.80000 0.78179 -0.25018 0.01168
335.90000 0.91536 -0.29677 0.00309
336.00000 0.79663 -0.16015 -0.00286
336.10000 0.92424 0.13391 -0.03891
336.20000 0.86976 0.11777 0.06178
336.30000 0.82624 0.04621 -0.04172
336.40000 0.85246 0.08221 -0.03352
336.50000 0.82421 -0.02131 0.00390
336.60000 0.79919 -0.11455 0.08571
336.70000 0.81208 -0.06041 -0.01013
336.80000 0.87072 -0.06591 -0.04310
336.90000 0.84948 -0.02536 0.03367
337.00000 0.82720 -0.14016 0.00594
337.10000 0.85972 -0.11433 0.00354
337.20000 0.80472 -0.13682 0.06503
337.30000 0.88474 -0.16136 -0.09196
337.40000 0.82967 -0.23475 -0.01892
337.50000 0.83708 -0.16470 0.02972
337.60000 0.91222 -0.12442 0.00811
337.70000 0.76893 -0.12882 -0.03005
337.80000 0.90830 -0.06434 -0.02601
337.90000 0.80861 -0.11224 0.02405
338.00000 0.87059 -0.02499 0.01925
338.10000 0.75884 -0.02822 0.01936
338.20000 0.88446 -0.02834 -0.03349
338.30000 0.87710 -0.10216 0.06285
338.40000 0.87315 -0.22310 0.01929
338.50000 0.85446 -0.24607 -0.00145
338.60000 0.82999 -0.12781 -0.04500
338.70000 0.86989 -0.01698 0.01888
338.80000 0.84484 0.06222 -0.03450
338.90000 0.83454 0.05784 0.04568
339.00000 0.84443 -0.02716 -0.03680
339.10000 0.89432 -0.13609 -0.00865
339.20000 0.78685 -0.03751 0.01971
339.30000 0.94434 0.19043 -0.00567
339.40000 0.83011 0.25411 0.02905
339.50000 0.88796 0.11714 0.02534
339.60000 0.83390 0.06908 0.00012
339.70000 0.90016 -0.08777 -0.06814
339.80000 0.83801 -0.19799 0.00195
339.90000 0.84094 0.05740 0.01207
340.00000 0.86426 0.14565 -0.02476
340.10000 0.89463 0.20832 0.00769
340.20000 0.84367 0.30136 -0.01718
340.30000 0.80925 -0.12702 -0.01637
340.40000 0.86557 -0.30497 0.02079
340.50000 0.84589 -0.26536 -0.00294
340.60000 0.88245 -0.18048 -0.07483
340.70000 0.82864 -0.14086 0.02313
340.80000 0.85645 -0.04039 -0.01804
340.90000 0.81603 -0.08371 -0.01470
341.00000 0.86070 -0.09782 0.06743
341.10000 0.76924 0.09168 -0.03626
341.20000 0.94188 0.30885 0.02063
341.30000 0.87339 0.48753 -0.02590
341.40000 0.79400 0.27827 -0.00160
341.50000 0.88716 0.13964 -0.00438
341.60000 0.79907 -0.00363 0.01047
341.70000 0.92346 -0.05958 0.03200
341.80000 0.81989 -0.09785 0.02995
341.90000 0.87680 -0.20715 -0.02911
342.00000 0.83573 -0.14057 0.00367
342.10000 0.90683 -0.14081 0.06220
342.20000 0.80808 -0.37261 0.01734
342.30000 0.89463 -0.36440 -0.00179
342.40000 0.88637 -0.32379 -0.02820
342.50000 0.75865 -0.18326 0.00095
342.60000 0.89895 -0.06833 -0.00926
342.70000 0.84046 0.02201 -0.00251
342.80000 0.90568 -0.11120 0.00475
342.90000 0.84505 -0.11174 0.01194
343.00000 0.86367 -0.08174 0.00304
343.10000 0.85318 -0.09022 -0.02159
343.20000 0.86446 -0.04145 0.01099
343.30000 0.84567 0.01669 0.01549
343.40000 0.89357 0.07727 0.02553
343.50000 0.80056 0.08595 0.00012
343.60000 0.91142 -0.00006 -0.01958
343.70000 0.89062 -0.06393 0.05290
343.80000 0.82245 -0.01998 -0.04974
343.90000 0.85641 0.07926 0.03421
344.00000 0.87012 -0.06588 -0.00988
344.10000 0.82788 -0.12661 -0.03865
344.20000 0.87850 -0.01373 0.01893
344.30000 0.89049 0.14667 0.05245
344.40000 0.82018 0.15378 -0.02262
344.50000 0.92879 0.11834 0.00011
344.60000 0.77600 0.02076 0.01943
344.70000 0.92288 0.06682 -0.02008
344.80000 0.83417 0.00038 0.03362
344.90000 0.82295 -0.08006 0.04195
345.00000 0.92310 0.02948 0.03821
345.10000 0.81241 0.07966 -0.00050
345.20000 0.83154 0.02805 0.00795
345.30000 0.88200 0.15401 -0.02660
345.40000 0.84754 0.11318 -0.00081
345.50000 0.80899 0.05445 0.02055
345.60000 0.80487 0.02879 -0.04666
345.70000 0.83916 -0.00327 0.04176
345.80000 0.81019 0.00740 0.09852
345.90000 0.88833 -0.01914 -0.06436
346.00000 0.83266 -0.01570 0.02254
346.10000 0.83975 -0.03328 0.02823
346.20000 0.82784 0.12954 -0.01998
346.30000 0.89302 0.15777 -0.00014
346.40000 0.85612 0.29925 0.02158
346.50000 0.85166 0.19207 -0.02021
346.60000 0.87501 0.04762 -0.00882
346.70000 0.84828 -0.14422 0.00197
346.80000 0.86568 -0.09739 -0.05397
346.90000 0.87042 -0.19385 0.02497
347.00000 0.87950 -0.14871 -0.02642
347.10000 0.88453 0.03231 0.01285
347.20000 0.77120 0.17769 -0.03308
347.30000 0.91390 0.01900 0.04812
347.40000 0.85916 -0.11504 -0.02347
347.50000 0.78899 -0.09083 -0.01335
347.60000 0.82169 0.03885 0.04026
347.70000 0.83953 0.01314 -0.01430
347.80000 0.86360 -0.05958 -0.03833
347.90000 0.87587 0.08166 -0.02658
348.00000 0.79996 0.27744 0.08158
348.10000 0.82850 0.23041 -0.00567
348.20000 0.84613 -0.11925 -0.02152
348.30000 0.86416 -0.14866 0.00067
348.40000 0.82469 -0.13063 0.00137
348.50000 0.89615 0.13319 0.07202
348.60000 0.85151 0.28224 0.01142
348.70000 0.85705 0.40482 0.02518
348.80000 0.85243 0.24952 -0.02407
348.90000 0.88681 0.04851 -0.01015
349.00000 0.79672 -0.01024 0.00667
349.10000 0.90137 -0.08066 -0.04396
349.20000 0.89333 -0.05803 -0.01339
349.30000 0.82850 -0.14848 -0.00556
349.40000 0.86590 -0.16551 0.03973
349.50000 0.90088 -0.20030 -0.05230
349.60000 0.80842 -0.21099 0.05143
349.70000 0.84988 -0.12189 -0.03831
349.80000 0.82664 -0.09214 0.01030
349.90000 0.83812 -0.11191 0.00366
350.00000 0.88993 0.03280 0.03995
350.10000 0.84546 -0.02887 -0.07896
350.20000 0.83368 -0.08511 0.00036
350.30000 0.93470 -0.04117 -0.01090
350.40000 0.84629 0.14285 -0.03580
350.50000 0.77689 0.15123 0.00163
350.60000 0.88309 -0.00997 0.00786
350.70000 0.84281 0.01842 0.04139
350.80000 0.90700 0.03477 -0.02668
350.90000 0.75949 0.17050 0.06162
351.00000 0.95984 0.21768 0.01085
351.10000 0.73368 0.16154 0.00013
351.20000 0.92851 0.12125 -0.01118
351.30000 0.86637 -0.05666 -0.00647
351.40000 0.85136 -0.06870 0.01544
351.50000 0.83105 -0.11240 0.00772
351.60000 0.88842 -0.10876 0.01115
351.70000 0.85116 -0.03638 0.01505
351.80000 0.83861 -0.01477 -0.04741
351.90000 0.86266 0.13576 0.05028
352.00000 0.84124 0.15015 -0.03755
352.10000 0.86426 0.27802 0.03048
352.20000 0.82660 0.23075 -0.02874
352.30000 0.81463 -0.08690 -0.05719
352.40000 0.91181 -0.19061 0.01664
352.50000 0.76059 -0.01448 0.00525
352.60000 0.92233 0.15701 -0.03127
352.70000 0.83516 0.10759 0.07349
352.80000 0.84278 -0.07463 -0.04307
352.90000 0.83952 -0.08456 -0.06753
353.00000 0.83891 -0.08990 0.04803
353.10000 0.81124 0.06816 0.03051
353.20000 0.91132 0.14419 0.02503
353.30000 0.83446 0.12534 -0.01511
353.40000 0.85840 0.08323 0.03645
353.50000 0.86210 -0.03779 -0.01881
353.60000 0.85612 -0.04629 -0.05316
353.70000 0.83907 -0.22150 -0.03568
353.80000 0.88508 -0.31540 0.01454
353.90000 0.79683 -0.25584 0.03053
354.00000 0.87695 -0.13973 0.01227
354.10000 0.83447 0.09190 -0.00188
354.20000 0.76749 0.31096 -0.01610
354.30000 0.88900 0.24987 -0.02497
354.40000 0.75958 0.01053 0.00991
354.50000 0.84533 -0.10248 0.01998
354.60000 0.85897 -0.16619 0.02262
354.70000 0.80139 -0.05939 -0.15499
354.80000 0.92374 0.23087 0.04357
354.90000 0.81247 0.34136 0.03531
355.00000 0.90280 0.32096 0.01954
355.10000 0.83743 0.25225 -0.01257
355.20000 0.78325 0.05899 0.00116
355.30000 0.87302 -0.23564 0.00398
355.40000 0.83178 -0.16107 0.03373
355.50000 0.83060 0.05070 0.03060
355.60000 0.84203 0.02464 -0.04794
355.70000 0.87806 0.03169 -0.00541
355.80000 0.80702 0.24530 0.02043
355.90000 0.86036 0.22555 -0.00455
356.00000 0.83084 0.03581 -0.00770
356.10000 0.83214 -0.04333 -0.06046
356.20000 0.81906 0.00620 0.02947
356.30000 0.87266 -0.03563 0.01802
356.40000 0.76515 -0.00619 -0.08996
356.50000 0.91466 -0.13802 0.05561
356.60000 0.78507 -0.28497 0.00512
356.70000 0.81545 -0.17992 0.00634
356.80000 0.91722 -0.12837 0.00677
356.90000 0.89798 -0.03894 0.01276
357.00000 0.78842 0.09097 -0.00689
357.10000 0.92223 0.09980 0.02489
357.20000 0.80361 0.07527 0.04264
357.30000 0.88947 0.22810 -0.04905
357.40000 0.76341 0.37882 -0.02164
357.50000 0.90932 0.18549 0.06683
357.60000 0.83252 -0.00046 -0.00861
357.70000 0.91104 -0.14946 0.00389
357.80000 0.77613 -0.07213 -0.02103
357.90000 0.87800 0.05314 0.01586
358.00000 0.83483 0.05569 0.06192
358.10000 0.82883 0.06835 0.02450
358.20000 0.82526 -0.09925 -0.00756
358.30000 0.87433 -0.21398 -0.06033
358.40000 0.84108 -0.01258 0.00617
358.50000 0.80196 0.19827 0.01980
358.60000 0.84955 0.13955 -0.07442
358.70000 0.88186 -0.11968 0.05233
358.80000 0.83892 -0.07841 -0.00394
358.90000 0.85270 0.06732 -0.01026
359.00000 0.84422 0.07237 0.00285
359.10000 0.84627 0.05212 0.00806
359.20000 0.90002 -0.05020 0.00374
359.30000 0.80371 0.15266 0.01530
359.40000 0.84197 0.10187 -0.01814
359.50000 0.81686 -0.06123 0.00595
359.60000 0.85217 -0.13936 -0.00007
359.70000 0.85769 0.08967 0.01902
359.80000 0.85291 0.33425 -0.01124
359.90000 0.84499 0.16590 0.00653
360.00000 0.87574 -0.12573 0.01182
360.10000 0.78951 -0.24288 0.01579
360.20000 0.90478 -0.07690 0.02627
360.30000 0.81937 0.01848 -0.00166
360.40000 0.91428 0.02532 -0.05578
360.50000 0.80602 -0.07388 0.01435
360.60000 0.89119 -0.13041 0.02711
360.70000 0.81140 -0.04516 -0.00374
360.80000 0.87804 0.11942 0.06812
360.90000 0.78039 0.16501 -0.01312
361.00000 0.82038 0.08734 0.01946
361.10000 0.82476 0.05675 0.00671
361.20000 0.89055 0.17209 -0.01860
361.30000 0.84195 0.14474 -0.03891
361.40000 0.81630 -0.00362 0.05557
361.50000 0.86758 -0.00394 0.01106
361.60000 0.84879 -0.07847 -0.01532
361.70000 0.84398 -0.05833 0.00203
361.80000 0.90711 0.05896 -0.00639
361.90000 0.82298 -0.01591 -0.01965
362.00000 0.88094 -0.04232 -0.01561
362.10000 0.78796 -0.16519 -0.00050
362.20000 0.86895 -0.15543 -0.00766
362.30000 0.84669 -0.06759 -0.00288
362.40000 0.77644 0.14440 0.01947
362.50000 0.92082 0.04195 -0.00291
362.60000 0.84435 -0.08482 -0.08818
362.70000 0.82316 -0.20782 0.05560
362.80000 0.86637 -0.12533 0.01309
362.90000 0.80874 -0.01141 -0.07271
363.00000 0.89872 0.12198 0.06515
363.10000 0.84292 0.05710 0.00189
363.20000 0.87518 -0.01642 -0.04222
363.30000 0.83647 -0.15754 0.00145
363.40000 0.83893 -0.12422 -0.04499
363.50000 0.82398 -0.08155 -0.01294
363.60000 0.83685 0.00343 0.00940
363.70000 0.83749 0.09681 -0.01132
363.80000 0.86920 0.07410 -0.03984
363.90000 0.87462 -0.09921 0.02398
364.00000 0.79906 -0.01367 0.00605
364.10000 0.87534 0.10931 -0.05325
364.20000 0.88169 0.16992 -0.06116
364.30000 0.86551 0.21162 0.06293
364.40000 0.89327 0.15477 0.03825
364.50000 0.80229 -0.09404 -0.04759
364.60000 0.83115 -0.15022 0.04391
364.70000 0.83859 0.05767 -0.04075
364.80000 0.83839 0.31241 -0.02313
364.90000 0.81734 0.24946 0.02229
365.00000 0.82608 0.11324 0.03706
365.10000 0.88183 0.05850 -0.02498
365.20000 0.87749 0.05864 -0.04617
365.30000 0.74028 0.05032 0.01120
365.40000 0.92929 -0.18383 0.01089
365.50000 0.77941 -0.27148 -0.07623
365.60000 0.83351 -0.33736 0.02597
365.70000 0.80465 -0.14488 -0.01503
365.80000 0.86752 0.05584 -0.03479
365.90000 0.81402 -0.07446 0.02062
366.00000 0.87817 -0.12363 0.02024
366.10000 0.86797 -0.05917 0.01372
366.20000 0.86060 0.03463 -0.01264
366.30000 0.82186 0.04320 -0.03307
366.40000 0.89717 -0.01542 0.01181
366.50000 0.83945 -0.12726 0.05439
366.60000 0.87378 -0.21705 -0.03347
366.70000 0.85718 -0.02267 -0.00858
366.80000 0.81103 0.14581 0.01875
366.90000 0.89530 0.10230 -0.00022
367.00000 0.84192 0.04251 0.00787
367.10000 0.85078 0.05595 -0.03882
367.20000 0.84779 0.00436 0.00351
367.30000 0.85753 0.06926 0.01272
367.40000 0.88120 0.10596 -0.03022
367.50000 0.84295 0.15783 0.02192
367.60000 0.81454 0.13457 0.05627
367.70000 0.89728 0.10722 -0.01428
367.80000 0.84119 -0.01623 0.01776
367.90000 0.82078 -0.13075 0.06286
368.00000 0.88337 -0.15124 -0.04373
368.10000 0.82208 -0.13994 0.02904
368.20000 0.83352 -0.06739 0.06056
368.30000 0.83377 -0.11841 0.01345
368.40000 0.82461 0.07348 -0.04382
368.50000 0.85020 0.13521 0.03078
368.60000 0.84201 -0.05466 0.00528
368.70000 0.82119 -0.11153 -0.01927
368.80000 0.84697 -0.13858 0.01622
368.90000 0.82757 -0.25088 -0.01413
369.00000 0.92809 -0.28215 0.08767
369.10000 0.79787 -0.33139 -0.00536
369.20000 0.80481 -0.24045 -0.03130
369.30000 0.93806 -0.05881 0.00711
369.40000 0.78457 0.01362 -0.01801
369.50000 0.92069 -0.11394 -0.04735
369.60000 0.84570 -0.05044 0.02314
369.70000 0.85606 0.17626 -0.00270
369.80000 0.75773 0.21827 -0.04446
369.90000 0.95384 -0.08891 0.01088
370.00000 0.79972 -0.01828 -0.03969
370.10000 0.94111 0.00620 0.03750
370.20000 0.81190 -0.07430 0.02156
370.30000 0.82552 0.05165 -0.03692
370.40000 0.89221 0.28942 -0.00786
370.50000 0.83455 0.23145 -0.01698
370.60000 0.85719 0.00174 -0.03225
370.70000 0.88757 -0.11254 0.02403
370.80000 0.78693 -0.24345 0.01839
370.90000 0.89242 -0.23044 0.01258
371.00000 0.80630 -0.10302 -0.01839
371.10000 0.83497 -0.06340 -0.02360
371.20000 0.81253 -0.02491 0.02280
371.30000 0.90466 -0.04524 0.00795
371.40000 0.83655 0.11996 -0.06290
371.50000 0.78073 -0.02070 0.03991
371.60000 0.87619 -0.06035 0.04407
371.70000 0.82663 -0.04391 0.01920
371.80000 0.85908 0.01151 -0.07135
371.90000 0.85840 0.00498 0.01827
372.00000 0.85165 -0.21002 -0.00963
372.10000 0.92217 -0.25254 -0.02289
372.20000 0.76943 -0.16176 -0.04829
372.30000 0.88256 0.01577 0.02747
372.40000 0.80890 -0.08419 0.00177
372.50000 0.93447 -0.10980 0.00432
372.60000 0.76741 0.05542 0.03571
372.70000 0.88782 -0.02268 0.02304
372.80000 0.81210 0.00313 0.01312
372.90000 0.87844 0.19940 -0.06434
373.00000 0.87035 0.12241 0.04159
373.10000 0.77058 -0.02993 0.04202
373.20000 0.85097 -0.04062 -0.04223
373.30000 0.83189 0.01339 -0.05096
373.40000 0.87367 0.07294 0.00488
373.50000 0.78081 0.01705 -0.03337
373.60000 0.85701 0.07190 0.05592
373.70000 0.88642 -0.14136 -0.01408
373.80000 0.81124 -0.10294 0.00226
373.90000 0.84441 -0.13363 -0.00059
374.00000 0.81122 -0.06157 -0.04761
374.10000 0.86900 0.02544 -0.06012
374.20000 0.81869 -0.04009 0.09574
374.30000 0.82485 -0.01974 -0.01237
374.40000 0.80892 -0.17699 -0.06509
374.50000 0.91761 -0.25484 0.05367
374.60000 0.77592 -0.21080 -0.01243
374.70000 0.83490 -0.09708 -0.08732
374.80000 0.85835 0.11281 0.04348
374.90000 0.84679 0.20256 0.06684
375.00000 0.85885 0.18611 -0.03126
375.10000 0.90811 -0.01374 0.02746
375.20000 0.79892 -0.25170 -0.01599
375.30000 0.91427 -0.35981 -0.00255
375.40000 0.79028 -0.29273 0.04944
375.50000 0.91403 -0.04855 -0.04557
375.60000 0.78439 0.04442 -0.01174
375.70000 0.89580 0.06479 0.01094
375.80000 0.77646 0.02642 0.01893
375.90000 0.84813 0.21036 -0.01064
376.00000 0.81989 0.23601 0.00777
376.10000 0.79847 0.01918 -0.06042
376.20000 0.91142 -0.03701 0.00700
376.30000 0.81993 0.02659 0.02292
376.40000 0.88378 0.10012 -0.03757
376.50000 0.82404 0.03524 0.01608
376.60000 0.83800 -0.17737 0.00088
376.70000 0.85869 -0.27017 0.04768
376.80000 0.81353 -0.26110 -0.04996
376.90000 0.90862 -0.17614 -0.00791
377.00000 0.83020 0.14997 -0.02608
377.10000 0.85971 0.25051 -0.00882
377.20000 0.86508 0.20031 -0.01266
377.30000 0.85928 0.13153 0.01631
377.40000 0.83329 0.06366 -0.02646
377.50000 0.83849 0.04805 0.11196
377.60000 0.81901 -0.06624 0.01090
377.70000 0.82130 -0.04940 -0.05825
377.80000 0.82526 0.07525 0.05268
377.90000 0.91724 -0.03274 0.04923
378.00000 0.81072 -0.28762 -0.10207
378.10000 0.85434 -0.26435 0.01261
378.20000 0.79893 -0.06819 -0.01812
378.30000 0.85898 -0.06007 0.00778
378.40000 0.76951 -0.14542 -0.01643
378.50000 0.90094 -0.13342 -0.02776
378.60000 0.76156 -0.00513 0.01793
378.70000 0.91676 0.10937 -0.01820
378.80000 0.84257 0.10692 -0.00737
378.90000 0.82620 0.15302 0.01746
379.00000 0.90350 0.21603 -0.00848
379.10000 0.87039 0.04732 0.01872
379.20000 0.83036 -0.16546 -0.03137
379.30000 0.93995 -0.13818 -0.02271
379.40000 0.71357 0.02687 0.05905
379.50000 0.97346 -0.09137 -0.00226
379.60000 0.79011 -0.09868 -0.05572
379.70000 0.92964 -0.01033 0.02433
379.80000 0.75241 -0.02132 0.00642
379.90000 0.83950 -0.07073 -0.07068
380.00000 0.87193 -0.19902 -0.00547
380.10000 0.88833 -0.15275 0.05448
380.20000 0.87729 0.07888 0.00950
380.30000 0.89737 0.06346 0.02885
380.40000 0.80921 0.08155 -0.04501
380.50000 0.86766 0.00292 -0.03634
380.60000 0.85388 -0.07224 -0.00097
380.70000 0.90295 -0.15807 0.01651
380.80000 0.85139 -0.19718 -0.01814
380.90000 0.75977 -0.17801 -0.01870
381.00000 0.85050 -0.06543 0.05075
381.10000 0.89693 -0.05225 -0.01360
381.20000 0.84249 -0.12706 0.00079
381.30000 0.86292 -0.29007 -0.03885
381.40000 0.81444 -0.19902 0.01338
381.50000 0.86619 -0.21320 -0.04994
381.60000 0.79184 -0.03968 0.00089
381.70000 0.88241 0.04192 0.02374
381.80000 0.82754 0.16838 -0.02918
381.90000 0.86842 -0.01561 0.00985
382.00000 0.85268 -0.16694 -0.01925
382.10000 0.79686 -0.22004 -0.03285
382.20000 0.85636 0.05987 -0.00902
382.30000 0.86482 0.11415 0.00606
382.40000 0.83526 -0.09831 -0.01597
382.50000 0.82503 -0.24352 -0.00062
382.60000 0.82466 -0.10404 0.03265
382.70000 0.82070 -0.02609 -0.00450
382.80000 0.87464 -0.03973 0.05808
382.90000 0.83934 -0.02336 -0.02842
383.00000 0.82098 -0.08633 -0.09057
383.10000 0.84093 -0.02914 -0.02864
383.20000 0.85085 -0.04606 0.04454
383.30000 0.86555 0.03447 0.02455
383.40000 0.87133 0.02401 -0.00512
383.50000 0.89739 -0.11373 0.02277
383.60000 0.80925 -0.19066 0.01529
383.70000 0.88288 -0.15090 -0.02863
383.80000 0.86672 -0.15429 0.00395
383.90000 0.82227 -0.13873 -0.04858
384.00000 0.83133 -0.18589 0.04081
384.10000 0.89720 -0.09372 0.05397
384.20000 0.79479 -0.09915 -0.01368
384.30000 0.81895 -0.02826 -0.03820
384.40000 0.84385 -0.22514 0.05200
384.50000 0.82703 -0.34868 0.02363
384.60000 0.89040 -0.16559 0.02700
384.70000 0.76725 -0.01947 -0.03747
384.80000 0.92979 -0.10075 -0.03109
384.90000 0.76950 -0.14936 0.02990
385.00000 0.92490 0.02523 -0.01660
385.10000 0.78502 0.34608 -0.05739
385.20000 0.86348 0.32737 0.05184
385.30000 0.78341 0.15063 0.00997
385.40000 0.83803 0.26596 -0.00868
385.50000 0.83500 0.34610 0.00463
385.60000 0.83035 0.32295 -0.01110
385.70000 0.89417 0.35603 -0.00685
385.80000 0.81660 0.18838 -0.06943
385.90000 0.87607 0.00311 0.01914
386.00000 0.85235 -0.24937 -0.03985
386.10000 0.83344 -0.24128 0.02659
386.20000 0.88287 -0.04509 0.04718
386.30000 0.81779 0.15668 -0.05468
386.40000 0.85527 0.29315 0.01321
386.50000 0.86779 0.29803 0.03371
386.60000 0.77971 0.22763 -0.03030
386.70000 0.85935 0.23778 0.04181
386.80000 0.83196 0.16918 -0.03630
386.90000 0.88352 0.13627 -0.02012
387.00000 0.93351 0.12488 0.07258
387.10000 0.76685 0.09152 -0.04590
387.20000 0.83583 -0.05177 0.03520
387.30000 0.86489 -0.20273 0.00007
387.40000 0.86048 -0.14918 -0.00121
387.50000 0.92805 -0.00585 0.02178
387.60000 0.73952 -0.20458 -0.05055
387.70000 0.92913 -0.39582 0.02100
387.80000 0.78472 -0.33589 0.02932
387.90000 0.82778 -0.12338 -0.03232
388.00000 0.85359 -0.13686 -0.00641
388.10000 0.87289 -0.16805 0.01623
388.20000 0.75589 0.03432 0.03207
388.30000 0.93219 0.11469 -0.03596
388.40000 0.78637 0.08042 -0.05185
388.50000 0.85944 0.06594 0.02450
388.60000 0.87942 -0.03881 0.04392
388.70000 0.85789 -0.30467 0.06654
388.80000 0.85450 -0.17161 0.01750
388.90000 0.86458 0.13138 -0.00833
389.00000 0.87429 0.18870 0.04077
389.10000 0.77979 0.13179 0.02134
389.20000 0.91764 -0.13524 0.01833
389.30000 0.76156 -0.19668 0.01373
389.40000 0.93207 0.03949 -0.00297
389.50000 0.79358 0.22159 -0.04715
389.60000 0.80877 0.23567 0.01537
389.70000 0.81961 0.11172 0.04542
389.80000 0.91241 0.05937 -0.03200
389.90000 0.74426 -0.04453 -0.00667
390.00000 0.98439 -0.04626 0.03014
390.10000 0.78850 -0.12311 0.01443
390.20000 0.85511 0.07641 -0.03658
390.30000 0.87788 0.11754 0.07337
390.40000 0.82332 -0.06448 -0.04217
390.50000 0.89962 -0.15752 0.01118
390.60000 0.78916 -0.06338 0.04038
390.70000 0.92776 0.14964 -0.01132
390.80000 0.79800 0.32873 0.03937
390.90000 0.87902 0.29926 0.01639
391.00000 0.85950 0.05244 -0.01238
391.10000 0.85218 -0.09133 -0.03781
391.20000 0.80487 -0.29683 0.01084
391.30000 0.88421 -0.20961 -0.05225
391.40000 0.81462 0.01636 0.02834
391.50000 0.80522 0.39723 0.05045
391.60000 0.82671 0.38260 -0.03166
391.70000 0.86369 0.33665 -0.00868
391.80000 0.83007 -0.00226 -0.03038
391.90000 0.79795 -0.07633 -0.04631
392.00000 0.87513 0.10798 0.07462
392.10000 0.83593 0.23468 0.00588
392.20000 0.86134 0.15616 -0.03152
392.30000 0.77695 -0.06530 0.01678
392.40000 0.90724 -0.44598 0.06851
392.50000 0.76403 -0.26940 -0.01305
392.60000 0.85109 -0.22418 -0.01793
392.70000 0.83437 -0.07719 0.02137
392.80000 0.85645 0.01409 -0.00025
392.90000 0.85463 -0.01633 -0.04611
393.00000 0.87014 -0.11152 0.04090
393.10000 0.86124 0.09736 0.01944
393.20000 0.80862 0.24004 -0.03077
393.30000 0.86593 0.11077 0.03629
393.40000 0.84897 -0.21817 0.04254
393.50000 0.87332 -0.12234 -0.04092
393.60000 0.82863 0.06803 -0.01411
393.70000 0.87248 0.16845 0.00413
393.80000 0.83411 0.03850 -0.01817
393.90000 0.89219 0.02034 -0.00223
394.00000 0.85282 0.10527 -0.00384
394.10000 0.90791 0.15055 0.05406
394.20000 0.76776 0.02292 -0.06105
394.30000 0.89031 0.18778 0.00932
394.40000 0.76600 0.19953 0.01287
394.50000 0.86789 0.12784 -0.01308
394.60000 0.84389 -0.06333 0.03193
394.70000 0.82670 -0.04473 -0.06570
394.80000 0.86998 -0.01511 0.05637
394.90000 0.81787 -0.02098 0.04300
395.00000 0.87141 -0.17672 -0.07335
395.10000 0.83457 -0.09899 -0.04828
395.20000 0.85926 0.01394 -0.00630
395.30000 0.85267 0.19855 0.03941
395.40000 0.74883 0.20251 -0.03577
395.50000 0.90131 -0.01051 -0.00704
395.60000 0.79867 -0.14168 0.06076
395.70000 0.84787 -0.15152 -0.03793
395.80000 0.81612 0.01349 0.00590
395.90000 0.95424 0.12164 -0.04390
396.00000 0.79646 -0.07173 0.03586
396.10000 0.85271 -0.20027 0.00146
396.20000 0.87482 -0.18565 0.00004
396.30000 0.86562 -0.13706 -0.01925
396.40000 0.82533 0.01554 -0.01793
396.50000 0.85691 0.18854 -0.02708
396.60000 0.87837 0.19311 0.00047
396.70000 0.86390 0.09508 0.01265
396.80000 0.81566 -0.01803 0.02543
396.90000 0.86016 -0.10147 -0.00686
397.00000 0.88656 -0.13878 -0.04635
397.10000 0.79670 -0.02483 0.02948
397.20000 0.90123 -0.06898 0.05308
397.30000 0.82584 0.08644 -0.01589
397.40000 0.91545 0.15253 -0.01570
397.50000 0.81193 0.05095 0.04626
397.60000 0.84160 0.05914 -0.01119
397.70000 0.79541 0.16479 -0.09039
397.80000 0.85691 0.23814 0.01502
397.90000 0.83099 0.35217 0.10458
398.00000 0.85192 0.22040 0.01154
398.10000 0.89456 0.10459 -0.03923
398.20000 0.78615 -0.01677 0.04789
398.30000 0.88789 -0.14217 0.01775
398.40000 0.78494 0.03477 -0.00405
398.50000 0.89510 0.02635 -0.03467
398.60000 0.74624 -0.14188 -0.01354
398.70000 0.91200 -0.19180 0.05679
398.80000 0.83752 -0.23425 0.02657
398.90000 0.89796 -0.04269 -0.07066
399.00000 0.79167 0.15844 -0.01577
399.10000 0.90499 0.18238 0.00325
399.20000 0.81947 0.09915 -0.02981
399.30000 0.79578 0.10479 0.01055
399.40000 0.94089 0.25075 0.08698
399.50000 0.73645 0.08003 -0.04161
399.60000 0.88136 -0.12019 -0.05093
399.70000 0.87117 0.09176 0.02061
399.80000 0.79233 0.18716 0.04428
399.90000 0.80803 -0.08102 -0.07492
400.00000 0.86462 -0.31414 0.01520
400.10000 0.85076 -0.22228 0.03985
400.20000 0.91064 0.04307 -0.03051
400.30000 0.77131 0.13342 -0.00019
400.40000 0.92881 0.07687 -0.01773
400.50000 0.87317 -0.03030 -0.01506
400.60000 0.84407 -0.05388 -0.01543
400.70000 0.88393 0.02301 0.06524
400.80000 0.72159 0.01712 -0.00597
400.90000 0.93586 0.00154 -0.01294
401.00000 0.78497 -0.01474 -0.02903
401.10000 0.85223 -0.14922 -0.00403
401.20000 0.88761 -0.13068 -0.00722
401.30000 0.79657 0.02197 0.01952
401.40000 0.83598 -0.00185 -0.01029
401.50000 0.86750 -0.08712 0.00109
401.60000 0.87088 -0.21208 -0.03079
401.70000 0.82240 -0.27029 0.04232
401.80000 0.81217 -0.19430 0.00765
401.90000 0.87653 -0.00906 0.02884
402.00000 0.84247 0.19681 0.00694
402.10000 0.87307 0.06183 -0.04297
402.20000 0.83803 -0.00165 -0.02642
402.30000 0.88402 0.11258 0.04051
402.40000 0.78849 0.09510 0.00287
402.50000 0.84711 0.02721 -0.01905
402.60000 0.87551 -0.04120 0.00034
402.70000 0.81748 -0.29084 -0.01470
402.80000 0.81327 -0.61404 -0.02252
402.90000 0.86084 -0.52022 0.03154
403.00000 0.79528 -0.25201 0.04559
403.10000 0.90410 -0.00505 -0.06272
403.20000 0.87428 0.05998 0.00042
403.30000 0.82478 -0.00481 0.01322
403.40000 0.82869 -0.01223 -0.03112
403.50000 0.95111 0.17027 0.09513
403.60000 0.73765 0.00114 -0.02727
403.70000 0.91907 -0.28919 0.02510
403.80000 0.82267 -0.14688 0.00470
403.90000 0.85607 -0.03206 -0.00574
404.00000 0.92632 -0.05610 0.07929
404.10000 0.78624 -0.01682 -0.05369
404.20000 0.82188 -0.05294 -0.05277
404.30000 0.84206 -0.02296 0.03253
404.40000 0.90365 0.00371 -0.00957
404.50000 0.76665 -0.13518 0.04913
404.60000 0.92521 -0.25586 -0.04663
404.70000 0.84990 -0.25253 0.01906
404.80000 0.85994 -0.17463 0.05370
404.90000 0.89035 -0.12928 -0.00075
405.00000 0.84591 -0.05474 -0.01636
405.10000 0.75446 0.01964 -0.00183
405.20000 0.91613 0.14297 -0.01805
405.30000 0.80022 0.26704 0.01710
405.40000 0.89033 0.26879 0.00814
405.50000 0.80379 -0.01495 0.04599
405.60000 0.85979 -0.23054 -0.00611
405.70000 0.81459 -0.20707 -0.02666
405.80000 0.91149 -0.05255 0.02819
405.90000 0.83232 0.19240 0.04401
406.00000 0.82851 0.03259 -0.02485
406.10000 0.85107 -0.10845 0.02224
406.20000 0.88617 -0.16891 -0.01834
406.30000 0.80243 -0.30526 -0.08442
406.40000 0.84275 -0.08484 -0.00973
406.50000 0.81213 0.21998 0.01311
406.60000 0.88632 0.52533 -0.05186
406.70000 0.82911 0.37538 0.06125
406.80000 0.87525 0.09673 0.03702
406.90000 0.88692 -0.06490 0.00602
407.00000 0.83197 -0.08617 -0.03471
407.10000 0.76867 0.04673 0.03246
407.20000 0.91264 0.11376 -0.03779
407.30000 0.73974 0.11828 0.04661
407.40000 0.89266 0.00524 0.00755
407.50000 0.88408 -0.18486 -0.09108
407.60000 0.86451 0.10041 0.07468
407.70000 0.87134 0.24731 0.00034
407.80000 0.81018 0.13729 0.05024
407.90000 0.80567 0.16150 -0.01609
408.00000 0.86606 -0.00839 0.02669
408.10000 0.80437 -0.04914 -0.03541
408.20000 0.83910 -0.08625 -0.01965
408.30000 0.88125 -0.30570 0.01655
408.40000 0.81428 -0.20627 -0.02662
408.50000 0.90762 0.09181 -0.00864
408.60000 0.85203 0.35718 -0.01391
408.70000 0.73831 0.55117 0.02798
408.80000 0.97733 0.40047 -0.03526
408.90000 0.83453 0.03086 0.01503
409.00000 0.86569 -0.22625 0.04245
409.10000 0.82133 -0.03744 0.02254
409.20000 0.89643 0.03301 -0.01344
409.30000 0.79822 -0.08809 -0.02222
409.40000 0.85029 -0.19487 0.02707
409.50000 0.84531 -0.38044 0.03232
409.60000 0.76387 -0.21840 0.06174
409.70000 0.86551 -0.16762 -0.02600
409.80000 0.84902 0.02353 -0.10595
409.90000 0.80491 0.04445 0.04681
410.00000 0.81416 -0.01798 0.05238
410.10000 0.85922 -0.07926 -0.02717
410.20000 0.79812 -0.03027 -0.08490
410.30000 0.88075 0.02812 0.04974
410.40000 0.78523 0.05474 -0.03332
410.50000 0.84949 -0.01961 -0.00115
410.60000 0.86682 -0.03358 0.02739
410.70000 0.80332 0.03772 0.00387
410.80000 0.91414 -0.04361 0.01261
410.90000 0.86804 0.16732 0.00723
411.00000 0.87078 -0.04929 -0.03147
411.10000 0.85480 -0.08469 0.02189
411.20000 0.85603 0.03723 0.00177
411.30000 0.77687 -0.15565 -0.00095
411.40000 0.90255 -0.13272 0.04485
411.50000 0.87342 -0.14273 0.03065
411.60000 0.80697 -0.15461 -0.00977
411.70000 0.87030 -0.04330 -0.02081
411.80000 0.77516 -0.00075 -0.06774
411.90000 0.89011 0.10597 0.04080
412.00000 0.89315 0.16022 0.07074
412.10000 0.83521 0.03733 -0.01591
412.20000 0.89310 -0.04873 -0.08620
412.30000 0.82938 -0.01681 0.04074
412.40000 0.84937 -0.01548 0.02012
412.50000 0.90758 -0.09808 0.00384
412.60000 0.80394 0.04785 0.04447
412.70000 0.90796 0.36463 -0.03708
412.80000 0.76945 0.42422 -0.01669
412.90000 0.86907 0.31578 -0.01711
413.00000 0.81250 0.31043 0.04747
413.10000 0.89863 0.21226 -0.02486
413.20000 0.80880 -0.10328 -0.01478
413.30000 0.80585 -0.11497 -0.02725
413.40000 0.86916 -0.13042 0.02655
413.50000 0.88324 -0.26420 -0.01322
413.60000 0.73599 -0.27409 0.02820
413.70000 0.91593 -0.17346 -0.01677
413.80000 0.83305 -0.00260 0.00200
413.90000 0.83703 0.02178 0.00856
414.00000 0.89338 -0.14870 0.03916
414.10000 0.80908 -0.07654 -0.00169
414.20000 0.84693 0.07331 -0.02042
414.30000 0.88948 0.13045 0.02179
414.40000 0.83099 0.16626 -0.03958
414.50000 0.79988 0.24342 0.04109
414.60000 0.95195 0.19976 -0.03329
414.70000 0.85663 0.05990 -0.00534
414.80000 0.80969 -0.10381 0.06737
414.90000 0.93282 -0.04256 0.02276
415.00000 0.78119 -0.04043 -0.01551
415.10000 0.92169 -0.16196 0.04821
415.20000 0.85699 0.08010 0.01119
415.30000 0.80360 0.24975 -0.03993
415.40000 0.84930 0.29408 -0.04458
415.50000 0.91937 0.10547 -0.04954
415.60000 0.77609 -0.02963 0.01920
415.70000 0.86203 -0.07697 -0.00267
415.80000 0.84549 -0.01110 -0.02428
415.90000 0.88916 0.02009 0.03506
416.00000 0.86539 -0.13555 0.00105
416.10000 0.82818 -0.14133 -0.05070
416.20000 0.83163 -0.24016 0.01097
416.30000 0.87802 -0.15387 -0.02243
416.40000 0.84037 -0.06774 0.03374
416.50000 0.87088 0.15166 -0.04854
416.60000 0.85377 0.29070 0.04038
416.70000 0.89244 0.23618 0.00881
416.80000 0.79788 0.20663 -0.00692
416.90000 0.83606 0.13253 -0.01776
417.00000 0.81175 -0.00549 0.05688
417.10000 0.78997 0.01086 0.02121
417.20000 0.94217 -0.18972 0.01415
417.30000 0.74044 -0.19416 -0.00089
417.40000 0.93370 0.01834 0.03480
417.50000 0.76754 0.09422 -0.01875
417.60000 0.85762 -0.10838 -0.02057
417.70000 0.88347 -0.13009 0.07778
417.80000 0.79871 0.06856 0.02516
417.90000 0.87178 0.19198 -0.06349
418.00000 0.86918 0.29008 0.01954
418.10000 0.84851 0.02963 0.02303
418.20000 0.82270 -0.03483 -0.01744
418.30000 0.84347 0.12727 -0.00788
418.40000 0.81328 0.25265 0.04680
418.50000 0.85689 0.22712 0.02598
418.60000 0.81679 0.07225 -0.04814
418.70000 0.90884 -0.34352 0.03692
418.80000 0.83283 -0.22275 -0.00509
418.90000 0.88260 0.01361 -0.04909
419.00000 0.85375 0.07590 0.00401
419.10000 0.86392 0.06630 0.00351
419.20000 0.89369 0.06096 0.01754
419.30000 0.82160 -0.09049 -0.02292
419.40000 0.83731 0.07429 0.00411
419.50000 0.84996 0.17890 -0.03909
419.60000 0.82430 0.32517 -0.02230
419.70000 0.89107 0.11615 0.08034
419.80000 0.80658 -0.04055 -0.05243
419.90000 0.84462 0.03047 -0.07568
420.00000 0.84992 0.01755 0.04167
420.10000 0.81347 0.12712 -0.00483
420.20000 0.83943 0.17712 0.03857
420.30000 0.81383 -0.02681 0.00793
420.40000 0.84883 -0.18910 -0.05469
420.50000 0.87993 -0.11194 0.03307
420.60000 0.84571 0.15282 0.07674
420.70000 0.91756 0.08147 -0.06168
420.80000 0.87790 -0.01945 0.01045
420.90000 0.81452 -0.17330 0.02166
421.00000 0.89164 -0.13441 0.00206
421.10000 0.80463 -0.06295 0.01475
421.20000 0.84561 -0.07971 -0.02944
421.30000 0.84403 -0.05181 -0.03157
421.40000 0.74624 0.00760 -0.01582
421.50000 0.86541 -0.22147 -0.00272
421.60000 0.84209 -0.26032 0.01832
421.70000 0.81083 -0.19715 -0.02484
421.80000 0.86671 -0.01314 0.03443
421.90000 0.85516 0.00318 -0.01547
422.00000 0.83240 0.14782 0.00658
422.10000 0.84241 0.10091 0.04717
422.20000 0.87782 0.00047 -0.00300
422.30000 0.78736 -0.06207 -0.02220
422.40000 0.87971 -0.01686 0.01746
422.50000 0.84162 0.06046 0.02967
422.60000 0.88764 0.22409 0.01913
422.70000 0.85641 0.17878 -0.08008
422.80000 0.85703 0.01676 0.04344
422.90000 0.82573 -0.00887 -0.01259
423.00000 0.87495 -0.14537 0.01590
423.10000 0.77663 -0.06383 0.00151
423.20000 0.89241 0.07410 -0.04746
423.30000 0.84524 0.22952 -0.01730
423.40000 0.87026 0.31267 0.01275
423.50000 0.86351 0.09914 0.03274
423.60000 0.84121 -0.02631 -0.02996
423.70000 0.86042 -0.06579 0.02791
423.80000 0.81312 -0.01735 0.02516
423.90000 0.90188 -0.01846 -0.04016
424.00000 0.76335 0.06637 0.04351
424.10000 0.97658 -0.01285 0.01542
424.20000 0.87222 -0.14536 -0.07299
424.30000 0.87253 -0.11877 -0.02342
424.40000 0.89551 0.04292 0.05668
424.50000 0.81739 -0.08911 0.02307
424.60000 0.89417 -0.18535 0.00590
424.70000 0.86953 -0.11204 0.02919
424.80000 0.80087 0.00593 -0.05320
424.90000 0.89577 -0.00199 -0.03935
425.00000 0.82327 -0.03729 0.01825
425.10000 0.86371 -0.08828 -0.03171
425.20000 0.86095 0.05024 0.00190
425.30000 0.79298 0.23464 0.02838
425.40000 0.87292 0.23119 0.02122
425.50000 0.82487 -0.05352 -0.03833
425.60000 0.85331 -0.07531 -0.02310
425.70000 0.86824 0.03937 0.00449
425.80000 0.83176 0.11117 -0.01471
425.90000 0.91653 -0.00931 0.03843
426.00000 0.80471 0.00639 0.01253
426.10000 0.93591 0.21950 -0.04640
426.20000 0.78941 0.22397 0.00343
426.30000 0.92607 0.27508 -0.01850
426.40000 0.82902 0.23166 -0.03787
426.50000 0.81701 -0.11698 0.04590
426.60000 0.85495 -0.40391 -0.02627
426.70000 0.84005 -0.27317 -0.02124
426.80000 0.83579 -0.00480 -0.00941
426.90000 0.87315 0.17350 0.04773
427.00000 0.84668 0.07904 -0.01243
427.10000 0.89896 0.04857 0.01478
427.20000 0.84977 0.27724 0.03811
427.30000 0.84286 0.27249 -0.03999
427.40000 0.87976 0.19369 0.02888
427.50000 0.84691 0.14079 -0.04439
427.60000 0.89303 -0.23388 -0.01606
427.70000 0.79471 -0.29835 0.00870
427.80000 0.93451 -0.13226 -0.07382
427.90000 0.79669 0.14879 -0.01544
428.00000 0.83981 0.11524 0.07600
428.10000 0.89737 0.05568 -0.04008
428.20000 0.84842 0.07099 -0.00829
428.30000 0.87553 0.04667 0.01749
428.40000 0.86598 0.04241 -0.02002
428.50000 0.85415 0.12266 -0.00565
428.60000 0.83597 -0.03922 -0.00188
428.70000 0.88430 -0.10721 0.04240
428.80000 0.86137 0.01190 -0.04570
428.90000 0.83855 -0.04439 0.01661
429.00000 0.80166 0.06590 0.02594
429.10000 0.84819 0.08113 -0.04573
429.20000 0.86127 0.01743 -0.00546
429.30000 0.84169 0.01146 0.01394
429.40000 0.86177 -0.15890 -0.02774
429.50000 0.86862 -0.06058 0.00169
429.60000 0.80528 0.20571 0.01652
429.70000 0.83270 0.24020 0.00763
429.80000 0.86091 0.20899 -0.07050
429.90000 0.82480 0.00569 -0.00485
430.00000 0.90099 -0.07635 -0.01394
430.10000 0.74664 -0.16152 -0.05283
430.20000 0.89851 -0.03819 0.00194
430.30000 0.76084 -0.04764 -0.00107
430.40000 0.96785 -0.27333 0.06103
430.50000 0.76157 -0.30957 0.00071
430.60000 0.90902 -0.08428 -0.02071
430.70000 0.85849 0.20136 0.00043
430.80000 0.85856 0.20267 0.04130
430.90000 0.82053 0.05500 -0.00332
431.00000 0.85220 0.07832 -0.06117
431.10000 0.94635 0.11151 0.05407
431.20000 0.82840 -0.02327 0.01166
431.30000 0.85661 -0.19163 -0.03496
431.40000 0.78538 -0.19209 -0.09104
431.50000 0.93199 0.00843 0.02980
431.60000 0.76629 0.06322 0.08701
431.70000 0.88721 0.05986 -0.02078
431.80000 0.79074 0.07857 -0.03481
431.90000 0.83818 -0.03738 -0.02071
432.00000 0.85347 -0.15056 0.02715
432.10000 0.83617 -0.04545 -0.02984
432.20000 0.87900 -0.07094 0.00011
432.30000 0.81214 -0.08990 0.03063
432.40000 0.90529 0.09076 0.01562
432.50000 0.79596 0.25170 -0.03434
432.60000 0.85497 0.23914 -0.04523
432.70000 0.88025 -0.00904 0.03680
432.80000 0.77369 -0.23579 0.03640
432.90000 0.84299 -0.16396 0.00421
433.00000 0.81434 0.10074 -0.02888
433.10000 0.91873 0.03850 0.03592
433.20000 0.87119 -0.07171 -0.03886
433.30000 0.80333 -0.12543 0.01007
433.40000 0.95919 -0.04305 0.00871
433.50000 0.79196 -0.04706 0.03611
433.60000 0.87277 0.26012 0.03835
433.70000 0.88869 0.08797 0.03114
433.80000 0.79125 -0.23395 -0.06681
433.90000 0.87519 -0.34486 0.03363
434.00000 0.82943 -0.20231 0.00221
434.10000 0.86470 -0.05686 -0.03775
434.20000 0.82584 0.17107 0.01833
434.30000 0.89426 0.03457 0.03461
434.40000 0.80734 -0.22461 -0.05032
434.50000 0.84797 -0.21970 -0.01957
434.60000 0.88054 -0.12526 -0.01273
434.70000 0.83097 -0.02327 0.01616
434.80000 0.89362 -0.20955 0.02677
434.90000 0.80791 -0.26150 -0.00973
435.00000 0.84833 -0.14860 -0.02494
435.10000 0.74352 -0.11869 0.02529
435.20000 0.89987 -0.25901 0.02507
435.30000 0.78079 -0.00047 -0.00659
435.40000 0.89976 0.23641 -0.01678
435.50000 0.78082 0.18869 -0.05293
435.60000 0.94097 -0.04520 0.01025
435.70000 0.84883 -0.02809 0.02974
435.80000 0.85331 0.04842 0.00862
435.90000 0.89418 0.05201 -0.01809
436.00000 0.85383 -0.00517 -0.00515
436.10000 0.88303 0.10457 0.04387
436.20000 0.85047 0.23505 -0.00534
436.30000 0.85907 0.25011 -0.01401
436.40000 0.83676 0.20957 0.06673
436.50000 0.91323 0.14477 0.00649
436.60000 0.90422 0.26599 -0.02276
436.70000 0.77828 0.11760 -0.01450
436.80000 0.89447 -0.00549 -0.00719
436.90000 0.81294 -0.04388 0.00172
437.00000 0.91130 0.08112 0.02607
437.10000 0.84241 0.13207 0.02161
437.20000 0.88028 0.05525 0.00142
437.30000 0.82117 0.10918 -0.03345
437.40000 0.86750 0.00222 0.00072
437.50000 0.77691 -0.08401 0.02211
437.60000 0.89520 -0.10242 0.00191
437.70000 0.81345 -0.01167 0.01148
437.80000 0.89427 0.16995 0.01588
437.90000 0.86537 0.23696 -0.00997
438.00000 0.76940 0.16573 0.01845
438.10000 0.91279 -0.00071 0.01626
438.20000 0.77046 -0.00920 -0.01054
438.30000 0.82807 0.05756 0.02922
438.40000 0.92167 0.02022 -0.00965
438.50000 0.80355 0.01741 -0.03240
438.60000 0.87499 0.00965 -0.01329
438.70000 0.79234 -0.02198 -0.02552
438.80000 0.85605 -0.11165 0.02496
438.90000 0.81484 -0.04276 -0.05885
439.00000 0.79681 0.16172 -0.01758
439.10000 0.86224 -0.08112 0.00873
439.20000 0.89038 -0.23863 0.02625
439.30000 0.80495 -0.19825 -0.01132
439.40000 0.85091 -0.15410 -0.00112
439.50000 0.77584 -0.02680 0.01808
439.60000 0.91534 -0.10714 -0.02878
439.70000 0.80585 -0.06402 -0.06479
439.80000 0.82275 0.08826 0.04966
439.90000 0.88257 0.15699 0.10876
440.00000 0.85751 0.12156 -0.02800
440.10000 0.83161 0.24546 -0.04616
440.20000 0.87212 0.27772 0.02192
440.30000 0.81743 0.17243 0.03821
440.40000 0.87138 0.26215 -0.04344
440.50000 0.83845 0.30273 0.03047
440.60000 0.86604 0.29668 0.03751
440.70000 0.80310 0.10998 0.00546
440.80000 0.86882 0.07849 0.00569
440.90000 0.84663 -0.03720 -0.05267
441.00000 0.82834 -0.18074 -0.00538
441.10000 0.90935 -0.15820 0.01925
441.20000 0.76162 -0.03386 -0.02121
441.30000 0.88905 -0.08057 -0.00120
441.40000 0.81411 0.03513 0.02359
441.50000 0.89432 0.08992 0.03874
441.60000 0.74392 0.10229 -0.12777
441.70000 0.88683 0.06512 0.02978
441.80000 0.80562 0.00040 -0.00936
441.90000 0.84986 -0.04816 0.01850
442.00000 0.89876 -0.00959 0.01808
442.10000 0.79970 -0.29813 -0.03670
442.20000 0.85852 -0.21285 0.05363
442.30000 0.86328 -0.02609 0.03154
442.40000 0.83266 -0.06779 -0.00800
442.50000 0.87098 -0.21649 -0.06680
442.60000 0.82511 -0.26891 0.03274
442.70000 0.92693 -0.19871 0.04756
442.80000 0.77599 -0.08086 -0.03514
442.90000 0.89610 0.03326 0.00528
443.00000 0.80755 0.01986 -0.01665
443.10000 0.90615 -0.04688 -0.06703
443.20000 0.85931 -0.10492 0.02423
443.30000 0.81449 -0.09952 -0.02515
443.40000 0.84817 -0.20122 0.02661
443.50000 0.84731 -0.17587 0.05329
443.60000 0.84510 0.09031 -0.02529
443.70000 0.81245 -0.00165 -0.00018
443.80000 0.83230 -0.03376 -0.03413
443.90000 0.83826 -0.06978 0.05208
444.00000 0.86514 -0.20965 -0.03755
444.10000 0.75650 -0.13423 -0.01521
444.20000 0.95392 -0.16951 0.10333
444.30000 0.84174 -0.05715 -0.01299
444.40000 0.84808 0.07201 -0.00992
444.50000 0.81998 0.02733 -0.01809
444.60000 0.81665 0.12814 0.00168
444.70000 0.89863 0.04583 -0.01339
444.80000 0.77953 -0.02589 -0.00165
444.90000 0.90783 -0.08497 -0.00346
445.00000 0.86921 -0.14163 0.02768
445.10000 0.83388 -0.25483 -0.02250
445.20000 0.89645 -0.18639 -0.00799
445.30000 0.78787 -0.08285 -0.04218
445.40000 0.93194 0.07237 -0.02183
445.50000 0.84681 0.04257 -0.02194
445.60000 0.82203 -0.08013 0.04855
445.70000 0.92931 -0.14007 0.01785
445.80000 0.76706 -0.10313 -0.02658
445.90000 0.84453 -0.14841 0.00317
446.00000 0.84235 -0.06945 0.00059
446.10000 0.83677 -0.14961 -0.03405
446.20000 0.91182 -0.21426 -0.01398
446.30000 0.72734 -0.25874 0.01927
446.40000 0.87510 -0.13012 -0.03289
446.50000 0.79693 0.18098 -0.05453
446.60000 0.93049 0.29155 0.03689
446.70000 0.78661 0.17612 0.02127
446.80000 0.87858 0.04033 0.02492
446.90000 0.82130 0.02456 -0.01677
447.00000 0.94452 0.10887 0.06692
447.10000 0.74157 0.01534 -0.00201
447.20000 0.88279 0.09069 0.01903
447.30000 0.88079 0.02794 -0.00701
447.40000 0.72897 -0.16249 0.00283
447.50000 0.90000 -0.31717 0.01040
447.60000 0.85531 -0.10375 0.04199
447.70000 0.84204 0.17748 -0.00418
447.80000 0.80402 0.23367 0.01719
447.90000 0.87863 0.24898 0.04251
448.00000 0.81089 0.25937 -0.03927
448.10000 0.79668 0.01906 -0.02475
448.20000 0.85943 -0.17339 0.01575
448.30000 0.87925 -0.13834 -0.04129
448.40000 0.84896 -0.00563 0.02443
448.50000 0.87433 0.04868 0.04908
448.60000 0.83364 -0.06548 -0.06487
448.70000 0.90124 -0.04654 -0.03035
448.80000 0.79389 0.04139 0.04292
448.90000 0.90341 0.12331 -0.01979
449.00000 0.83525 -0.09278 -0.02556
449.10000 0.79051 -0.20574 0.03256
449.20000 0.90590 -0.21951 0.03423
449.30000 0.83138 -0.18006 0.02092
449.40000 0.85794 0.07550 -0.00054
449.50000 0.81359 0.10787 -0.04016
449.60000 0.92321 -0.05324 0.02941
449.70000 0.81471 -0.14235 0.00512
449.80000 0.80887 -0.28455 -0.02646
449.90000 0.81714 -0.27813 0.06351
450.00000 0.87300 -0.04436 -0.01151
450.10000 0.85251 0.02005 0.00104
450.20000 0.84252 0.06737 -0.01815
450.30000 0.85076 0.09252 0.02143
450.40000 0.85521 -0.14725 -0.02349
450.50000 0.84934 -0.36965 0.01078
450.60000 0.84446 -0.25837 -0.03324
450.70000 0.83340 -0.11635 -0.03505
450.80000 0.85900 -0.00343 0.03463
450.90000 0.88252 0.14572 -0.05975
451.00000 0.82200 0.10340 -0.00756
451.10000 0.87717 0.06462 0.04503
451.20000 0.91490 0.07937 0.02793
451.30000 0.78802 0.07383 -0.01120
451.40000 0.91042 0.05557 0.04633
451.50000 0.76011 -0.01332 -0.06470
451.60000 0.86196 -0.18110 0.00511
451.70000 0.92021 -0.01166 0.03278
451.80000 0.83858 0.14475 -0.02676
451.90000 0.78638 0.12757 -0.02478
452.00000 0.88120 0.12827 0.03218
452.10000 0.83291 0.02118 0.00462
452.20000 0.79172 -0.06966 0.00623
452.30000 0.83486 -0.18308 0.00955
452.40000 0.86737 -0.06527 -0.03907
452.50000 0.82201 0.02307 0.01885
452.60000 0.82477 0.13342 0.04215
452.70000 0.89756 0.10456 -0.05777
452.80000 0.75142 -0.13510 -0.00384
452.90000 0.84804 -0.14378 0.03652
453.00000 0.87270 -0.01762 0.05167
453.10000 0.81053 0.14959 0.01174
453.20000 0.92569 -0.08810 0.04824
453.30000 0.85391 -0.30740 0.01708
453.40000 0.77660 -0.17733 -0.04102
453.50000 0.86544 -0.06278 0.01097
453.60000 0.80204 -0.04304 0.02964
453.70000 0.86389 -0.01986 -0.00783
453.80000 0.92019 0.02530 0.00021
453.90000 0.82880 0.04506 0.05593
454.00000 0.87549 -0.03406 -0.02155
454.10000 0.90342 -0.03245 -0.00072
454.20000 0.79595 -0.04258 -0.00104
454.30000 0.91733 -0.02605 -0.01802
454.40000 0.77691 -0.24399 0.01811
454.50000 0.92624 -0.11869 -0.01687
454.60000 0.84223 0.03845 0.02107
454.70000 0.83388 0.06039 -0.02802
454.80000 0.81855 0.06228 0.01282
454.90000 0.88680 0.23295 -0.03394
455.00000 0.82169 0.28173 -0.04206
455.10000 0.82331 0.15050 0.03603
455.20000 0.89442 -0.04789 -0.03153
455.30000 0.75372 -0.04801 -0.04405
455.40000 0.89968 0.07679 -0.00945
455.50000 0.81820 0.14302 0.07896
455.60000 0.82134 0.12215 0.00223
455.70000 0.87799 0.28696 -0.02756
455.80000 0.79133 0.08362 0.03819
455.90000 0.89314 -0.07491 0.01352
456.00000 0.87069 -0.10926 0.01690
456.10000 0.83927 -0.09304 0.01357
456.20000 0.89674 0.03059 0.04366
456.30000 0.82589 0.05160 0.00344
456.40000 0.89819 0.24038 -0.01929
456.50000 0.84046 0.31503 0.05525
456.60000 0.84540 0.30614 0.00053
456.70000 0.84108 0.08656 0.01056
456.80000 0.84241 -0.08507 -0.04666
456.90000 0.83127 0.01702 0.01236
457.00000 0.84377 -0.07668 0.07440
457.10000 0.83171 0.09128 0.00866
457.20000 0.85586 0.15336 -0.00087
457.30000 0.85452 0.13854 -0.04480
457.40000 0.86319 0.07849 0.00142
457.50000 0.94563 0.06403 0.03571
457.60000 0.76343 -0.01697 -0.01744
457.70000 0.88199 0.05383 0.01177
457.80000 0.83300 0.02837 0.01493
457.90000 0.81953 0.10627 0.03171
458.00000 0.90762 0.20063 -0.03866
458.10000 0.82727 0.16321 0.02276
458.20000 0.78553 0.05706 -0.01541
458.30000 0.87221 0.02496 0.05252
458.40000 0.80595 -0.08562 -0.01778
458.50000 0.88463 -0.06966 0.04460
458.60000 0.86403 0.19472 -0.04946
458.70000 0.81868 0.30327 -0.01607
458.80000 0.89470 0.29546 -0.02905
458.90000 0.77751 0.22900 0.02424
459.00000 0.86194 0.02385 0.05762
459.10000 0.76950 -0.02082 0.01732
459.20000 0.96058 -0.04304 -0.02344
459.30000 0.77565 -0.17236 -0.00583
459.40000 0.92730 -0.20071 0.08048
459.50000 0.83839 0.12461 -0.00970
459.60000 0.85891 0.36997 0.00019
459.70000 0.92061 0.23807 0.05855
459.80000 0.77146 0.00149 -0.09684
459.90000 0.89898 -0.01261 -0.02210
460.00000 0.84127 0.07092 0.08799
460.10000 0.90146 0.17127 -0.05373
460.20000 0.88161 0.09723 -0.09244
460.30000 0.79676 -0.02054 0.03487
460.40000 0.90901 0.08323 0.03900
460.50000 0.85947 0.22956 -0.03019
460.60000 0.82447 0.15999 -0.00223
460.70000 0.87406 0.06213 -0.00768
460.80000 0.83825 0.00353 -0.02744
460.90000 0.86120 0.04260 0.01002
461.00000 0.84486 0.07359 0.02030
461.10000 0.83779 0.13340 -0.00088
461.20000 0.93463 0.12525 -0.03895
461.30000 0.75066 -0.01693 0.03320
461.40000 0.91578 0.01914 -0.01720
461.50000 0.83792 -0.17557 0.02239
461.60000 0.88595 -0.23832 -0.00761
461.70000 0.83398 -0.04445 0.03109
461.80000 0.77813 0.00951 -0.04907
461.90000 0.91372 0.08653 0.03109
462.00000 0.82832 0.13042 0.05573
462.10000 0.83354 0.10295 0.06515
462.20000 0.83430 0.06094 -0.05115
462.30000 0.87875 -0.03926 0.03485
462.40000 0.81665 0.02436 0.00401
462.50000 0.79942 0.22605 -0.01421
462.60000 0.91487 0.08918 -0.01469
462.70000 0.81280 -0.11691 0.02065
462.80000 0.87383 -0.24378 -0.01773
462.90000 0.87129 -0.20540 -0.00420
463.00000 0.80431 0.03732 0.04842
463.10000 0.91063 0.14959 -0.06385
463.20000 0.75090 0.16554 0.03511
463.30000 0.92212 -0.05395 0.03879
463.40000 0.82139 -0.17589 -0.03621
463.50000 0.89669 -0.07284 0.02825
463.60000 0.82609 0.05090 0.06280
463.70000 0.81565 0.18975 -0.02188
463.80000 0.82797 0.25612 0.03828
463.90000 0.82059 0.24354 0.07285
464.00000 0.90378 0.14775 -0.01773
464.10000 0.77270 -0.04942 -0.00921
464.20000 0.91706 -0.13146 0.01885
464.30000 0.74348 0.02340 0.01065
464.40000 0.89781 0.05334 0.05386
464.50000 0.80289 -0.16224 0.03493
464.60000 0.94386 -0.16829 0.01613
464.70000 0.83426 0.08953 -0.03249
464.80000 0.79898 0.01904 -0.06581
464.90000 0.88906 0.07518 0.04670
465.00000 0.83209 -0.00505 -0.00944
465.10000 0.88372 -0.20311 -0.04306
465.20000 0.79343 -0.09907 -0.02448
465.30000 0.87954 0.27412 -0.00482
465.40000 0.85510 0.43338 0.04964
465.50000 0.79198 0.10291 -0.07205
465.60000 0.87194 -0.25502 -0.04580
465.70000 0.83952 -0.39028 -0.00911
465.80000 0.85518 -0.29657 0.01563
465.90000 0.87160 -0.02365 0.02723
466.00000 0.78957 0.12834 0.07318
466.10000 0.80575 -0.02291 -0.04136
466.20000 0.93084 0.17827 0.06923
466.30000 0.75780 0.30193 -0.02485
466.40000 0.89393 0.13971 -0.04542
466.50000 0.80904 -0.10673 -0.00531
466.60000 0.94169 -0.12874 -0.00630
466.70000 0.81513 -0.00057 -0.00343
466.80000 0.86830 0.05696 0.03742
466.90000 0.85945 -0.06416 -0.01899
467.00000 0.78953 -0.01002 -0.00861
467.10000 0.91943 -0.02132 0.05561
467.20000 0.86751 0.18402 -0.00128
467.30000 0.85619 0.26148 0.02191
467.40000 0.85862 0.02299 0.00662
467.50000 0.86891 -0.26119 -0.02293
467.60000 0.80621 -0.31226 -0.00640
467.70000 0.85936 0.07665 0.03426
467.80000 0.86837 0.42192 -0.01440
467.90000 0.84106 0.46425 -0.07395
468.00000 0.82295 0.28850 0.02842
468.10000 0.84703 0.20566 0.03931
468.20000 0.84257 -0.08639 -0.01929
468.30000 0.88438 -0.09220 0.00038
468.40000 0.84421 0.08748 -0.04609
468.50000 0.80927 0.17434 -0.05057
468.60000 0.86772 0.09066 -0.00752
468.70000 0.81940 -0.08352 0.04218
468.80000 0.79625 -0.35030 -0.00904
468.90000 0.87392 -0.27083 0.02118
469.00000 0.78125 -0.08330 -0.04307
469.10000 0.88688 -0.01362 -0.00216
469.20000 0.82587 -0.03670 0.02588
469.30000 0.82477 0.07778 0.01416
469.40000 0.83049 -0.04655 -0.02413
469.50000 0.87221 -0.00600 0.00049
469.60000 0.84885 0.09966 0.06309
469.70000 0.83935 0.12065 0.01407
469.80000 0.90164 0.00886 -0.02001
469.90000 0.83710 -0.12205 -0.01384
470.00000 0.81868 -0.21079 -0.06123
470.10000 0.85116 -0.28260 0.01197
470.20000 0.87754 -0.25265 -0.00669
470.30000 0.79156 -0.37697 0.05486
470.40000 0.91082 -0.30093 0.02593
470.50000 0.72982 -0.07110 -0.02584
470.60000 0.91009 0.12730 0.00061
470.70000 0.83582 0.17587 0.02829
470.80000 0.81590 0.15908 -0.04116
470.90000 0.86510 0.05228 0.01436
471.00000 0.81340 -0.24025 -0.08353
471.10000 0.89787 -0.31675 0.03028
471.20000 0.84656 -0.21021 0.07827
471.30000 0.86766 -0.13939 0.05411
471.40000 0.85335 -0.12143 0.02377
471.50000 0.83589 -0.21971 -0.00135
471.60000 0.85654 -0.03760 -0.02450
471.70000 0.85067 -0.01264 -0.03176
471.80000 0.78974 -0.05072 0.01847
471.90000 0.94226 -0.08557 0.00702
472.00000 0.75949 -0.08508 -0.00377
472.10000 0.91903 -0.16458 0.03472
472.20000 0.80979 -0.09968 0.01647
472.30000 0.86604 -0.04701 -0.04031
472.40000 0.83100 0.11359 -0.02385
472.50000 0.85055 0.14121 0.01354
472.60000 0.83281 0.32638 0.05748
472.70000 0.86885 0.28992 -0.02732
472.80000 0.85325 0.05195 -0.01009
472.90000 0.85444 -0.18131 0.04725
473.00000 0.89919 -0.10749 -0.03801
473.10000 0.78772 0.04215 0.02203
473.20000 0.84381 0.08496 -0.04007
473.30000 0.87796 -0.00985 0.03485
473.40000 0.78663 -0.02491 0.00328
473.50000 0.90963 0.06812 -0.00957
473.60000 0.82448 0.03252 0.02951
473.70000 0.82613 -0.07163 -0.06692
473.80000 0.85110 -0.06474 -0.03930
473.90000 0.84647 0.03856 -0.04073
474.00000 0.81770 0.03831 0.01470
474.10000 0.86404 -0.14192 0.01685
474.20000 0.85221 -0.03329 -0.03020
474.30000 0.83053 0.11615 -0.01000
474.40000 0.85770 0.15004 -0.03837
474.50000 0.89638 -0.08525 0.00344
474.60000 0.75750 -0.31708 0.00380
474.70000 0.82532 -0.19754 -0.01389
474.80000 0.82539 0.04864 0.00453
474.90000 0.86547 0.19478 -0.02050
475.00000 0.81242 0.23921 -0.05639
475.10000 0.85636 -0.03565 -0.01386
475.20000 0.85405 -0.19381 0.02154
475.30000 0.89552 -0.30952 -0.05134
475.40000 0.78697 -0.28527 -0.00131
475.50000 0.87443 0.06027 0.04990
475.60000 0.87251 0.06740 0.00046
475.70000 0.84233 -0.15687 -0.04522
475.80000 0.78166 -0.19291 0.08886
475.90000 0.94971 -0.16226 -0.02426
476.00000 0.84525 0.00904 -0.05126
476.10000 0.78590 -0.05153 0.02622
476.20000 0.88426 -0.10669 0.03651
476.30000 0.76702 -0.18520 0.02159
476.40000 0.89905 0.01314 -0.02143
476.50000 0.81915 -0.01390 0.05721
476.60000 0.84951 -0.08278 -0.00734
476.70000 0.89417 -0.07807 0.01945
476.80000 0.77114 -0.03430 0.02740
476.90000 0.85290 0.06076 -0.01023
477.00000 0.75878 -0.10759 0.01187
477.10000 0.86698 -0.16471 0.00334
477.20000 0.78311 0.01547 -0.02433
477.30000 0.89315 0.01675 0.00135
477.40000 0.81730 -0.00370 0.01945
477.50000 0.89394 -0.07376 -0.05387
477.60000 0.82523 -0.09362 0.03341
477.70000 0.85482 -0.13299 -0.02264
477.80000 0.81287 0.10764 0.01551
477.90000 0.92569 0.24907 -0.05041
478.00000 0.83131 0.18733 0.05025
478.10000 0.86562 -0.02302 -0.05788
478.20000 0.79619 -0.06521 0.00965
478.30000 0.90413 0.26347 0.00473
478.40000 0.85937 0.35397 0.00653
478.50000 0.88507 0.30843 0.00244
478.60000 0.84244 0.27341 0.04882
478.70000 0.83464 0.37301 -0.07167
478.80000 0.87069 0.20847 0.01495
478.90000 0.84273 0.09090 0.04291
479.00000 0.78616 0.04339 -0.03868
479.10000 0.87454 -0.01184 0.00225
479.20000 0.83965 -0.14755 0.04358
479.30000 0.81761 -0.21637 -0.03870
479.40000 0.85151 -0.24103 0.00174
479.50000 0.77947 -0.09244 0.07528
479.60000 0.83236 0.03209 -0.05010
479.70000 0.80616 0.19989 -0.06802
479.80000 0.85455 0.26574 0.00350
479.90000 0.86879 0.05186 0.06259
480.00000 0.79456 -0.04472 0.00191
480.10000 0.83130 -0.07272 -0.11789
480.20000 0.90104 -0.16200 0.00081
480.30000 0.89195 -0.30783 0.06213
480.40000 0.87827 -0.15594 -0.00522
480.50000 0.79954 -0.17677 0.04974
480.60000 0.89242 -0.08349 0.00674
480.70000 0.80171 0.12972 -0.03023
480.80000 0.83104 0.27115 0.04198
480.90000 0.87125 0.07873 0.00024
481.00000 0.86326 -0.04343 -0.03247
481.10000 0.86843 -0.14307 0.05303
481.20000 0.83398 0.03842 -0.01531
481.30000 0.89936 0.09523 -0.05747
481.40000 0.82753 0.17288 0.00175
481.50000 0.82327 -0.03592 0.00969
481.60000 0.92023 -0.16788 -0.00983
481.70000 0.79013 -0.03473 -0.01808
481.80000 0.88128 0.00445 -0.00946
481.90000 0.85661 -0.07382 0.00409
482.00000 0.86543 -0.30307 0.03476
482.10000 0.89761 -0.41574 -0.01695
482.20000 0.76413 -0.33313 0.03053
482.30000 0.88026 -0.17380 -0.02362
482.40000 0.84361 0.03884 -0.06021
482.50000 0.83783 -0.02354 0.02188
482.60000 0.90973 0.02366 0.01903
482.70000 0.81261 0.15357 0.00292
482.80000 0.87526 0.17017 -0.01461
482.90000 0.82604 -0.05283 0.03468
483.00000 0.83386 -0.13781 -0.00676
483.10000 0.81393 -0.13514 -0.02006
483.20000 0.88538 -0.08670 0.02645
483.30000 0.85144 0.23944 0.02198
483.40000 0.82287 0.17288 0.01136
483.50000 0.84125 0.04276 -0.04958
483.60000 0.86258 -0.03446 0.08727
483.70000 0.82786 -0.19142 -0.05108
483.80000 0.91788 -0.29122 -0.00678
483.90000 0.77395 -0.20237 0.02203
484.00000 0.92658 -0.01119 0.02549
484.10000 0.83029 0.04788 0.01266
484.20000 0.84622 0.05317 0.02712
484.30000 0.85258 0.20457 -0.04922
484.40000 0.81373 0.27288 -0.00915
484.50000 0.88199 0.14152 0.09887
484.60000 0.84242 0.04976 -0.02199
484.70000 0.94647 -0.01628 -0.01796
484.80000 0.76893 -0.25737 0.05517
484.90000 0.89929 -0.40087 0.02764
485.00000 0.82302 -0.38483 -0.08393
485.10000 0.89776 -0.30878 0.02092
485.20000 0.84291 -0.24155 0.02234
485.30000 0.84821 -0.20179 -0.04446
485.40000 0.85106 -0.02499 0.02433
485.50000 0.87696 -0.01406 -0.02603
485.60000 0.80579 0.16394 -0.00109
485.70000 0.85954 0.16122 0.01067
485.80000 0.80418 -0.12404 -0.03108
485.90000 0.87248 -0.32156 -0.00117
486.00000 0.83209 -0.16443 -0.04116
486.10000 0.83329 0.14851 -0.02137
486.20000 0.87470 0.25936 0.05200
486.30000 0.81733 0.10570 -0.02910
486.40000 0.82124 -0.06294 -0.04783
486.50000 0.89746 0.01357 0.01716
486.60000 0.73180 0.11240 0.00847
486.70000 0.94137 0.20043 -0.01721
486.80000 0.82786 0.11036 0.01859
486.90000 0.82435 0.12219 0.01834
487.00000 0.86600 0.04920 -0.01167
487.10000 0.83329 0.09939 -0.08055
487.20000 0.91158 0.17283 -0.01512
487.30000 0.82453 0.13863 -0.06406
487.40000 0.89275 0.01545 -0.00775
487.50000 0.84025 -0.03363 0.01299
487.60000 0.84757 -0.08923 -0.01632
487.70000 0.82740 0.02195 0.05607
487.80000 0.87206 0.10590 -0.00438
487.90000 0.80802 0.20496 -0.02297
488.00000 0.81875 0.19462 0.05911
488.10000 0.87695 -0.00087 0.02613
488.20000 0.80882 -0.06057 -0.00307
488.30000 0.81746 0.03311 -0.00444
488.40000 0.87025 0.06122 -0.01262
488.50000 0.82126 0.02110 -0.04888
488.60000 0.87941 0.06232 0.07905
488.70000 0.81706 -0.00407 0.06237
488.80000 0.90435 0.13605 -0.03711
488.90000 0.89539 0.02949 0.04812
489.00000 0.75009 -0.20927 -0.06624
489.10000 0.83058 -0.21328 0.04159
489.20000 0.87650 -0.17256 0.01149
489.30000 0.87722 -0.17320 -0.00781
489.40000 0.84143 -0.02235 -0.01773
489.50000 0.83692 -0.00346 0.02058
489.60000 0.75865 -0.07729 0.02159
489.70000 0.87314 -0.16646 0.00969
489.80000 0.81147 -0.41672 -0.05073
489.90000 0.85500 -0.42082 0.05730
490.00000 0.83639 -0.14721 -0.02058
490.10000 0.86388 0.13614 0.01969
490.20000 0.85695 0.28439 -0.06441
490.30000 0.79581 0.29481 0.02964
490.40000 0.87532 0.17575 0.01283
490.50000 0.78507 -0.17798 0.01981
490.60000 0.96643 -0.23799 -0.04644
490.70000 0.75214 -0.08325 -0.01522
490.80000 0.89940 0.04702 -0.01284
490.90000 0.82729 0.11075 -0.02845
491.00000 0.86993 0.10660 -0.02033
491.10000 0.75785 0.12647 -0.01227
491.20000 0.88684 0.01334 -0.00370
491.30000 0.83792 -0.13734 0.02199
491.40000 0.84683 -0.04415 -0.02436
491.50000 0.94043 0.01705 -0.02364
491.60000 0.85468 0.10599 0.05222
491.70000 0.83790 0.10915 0.01116
491.80000 0.81265 -0.02221 -0.01407
491.90000 0.84016 -0.00493 0.04353
492.00000 0.80603 0.07254 -0.00499
492.10000 0.87466 0.08438 -0.00588
492.20000 0.80426 0.03624 0.03710
492.30000 0.82536 -0.12002 -0.04824
492.40000 0.88082 -0.17075 -0.04603
492.50000 0.85010 -0.09042 0.03182
492.60000 0.81017 -0.04666 -0.00620
492.70000 0.85757 -0.15810 -0.00167
492.80000 0.80160 -0.19468 0.03519
492.90000 0.88777 -0.13145 -0.00024
493.00000 0.69908 0.00843 0.00875
493.10000 0.92362 -0.14433 -0.02903
493.20000 0.86574 -0.32392 -0.00450
493.30000 0.75533 -0.17908 0.07888
493.40000 0.94760 -0.07199 0.01255
493.50000 0.75964 0.03862 -0.01198
493.60000 0.92538 0.04894 -0.00650
493.70000 0.83941 0.06725 0.06030
493.80000 0.84054 -0.06896 0.05814
493.90000 0.85547 -0.19811 -0.05342
494.00000 0.83332 -0.02645 -0.01663
494.10000 0.87418 0.15187 -0.00687
494.20000 0.82244 -0.02424 0.02272
494.30000 0.89418 -0.06276 0.00106
494.40000 0.75930 -0.00942 0.00316
494.50000 0.89070 -0.01699 -0.00792
494.60000 0.77691 -0.19574 0.03350
494.70000 0.94640 -0.06942 -0.01548
494.80000 0.77942 0.11247 -0.02891
494.90000 0.92371 0.09607 -0.06988
495.00000 0.79168 -0.15957 0.05543
495.10000 0.83090 -0.10947 0.05269
495.20000 0.88314 0.02823 -0.02770
495.30000 0.84369 0.11032 -0.00615
495.40000 0.82428 0.05230 0.02592
495.50000 0.88461 -0.06755 0.00092
495.60000 0.83874 -0.18381 -0.00771
495.70000 0.85378 -0.11222 0.00602
495.80000 0.93152 -0.15671 0.01574
495.90000 0.73963 -0.08964 0.00648
496.00000 0.87940 0.06705 -0.04752
496.10000 0.84028 0.10479 0.00612
496.20000 0.81645 0.20861 0.01029
496.30000 0.87837 0.19293 -0.02421
496.40000 0.80230 0.08313 -0.01401
496.50000 0.88737 0.03985 0.01183
496.60000 0.81071 0.13292 0.03300
496.70000 0.89396 0.20887 -0.02048
496.80000 0.84335 0.04186 -0.00501
496.90000 0.80735 0.00561 0.01667
497.00000 0.93308 0.06827 0.01637
497.10000 0.79397 -0.06107 -0.01469
497.20000 0.88447 -0.04297 -0.03907
497.30000 0.84036 -0.06839 -0.00451
497.40000 0.87461 -0.02714 0.00880
497.50000 0.85800 0.03029 0.03739
497.60000 0.83888 0.00260 -0.05538
497.70000 0.87395 -0.10866 0.06615
497.80000 0.82083 -0.12530 0.02497
497.90000 0.83504 -0.06865 -0.08906
498.00000 0.94199 0.08316 0.03288
498.10000 0.76565 0.07934 0.09271
498.20000 0.86023 -0.04172 -0.05605
498.30000 0.88621 0.07863 -0.07493
498.40000 0.76000 0.19370 0.05692
498.50000 0.86654 0.21209 0.04772
498.60000 0.86710 0.01557 -0.02021
498.70000 0.77346 -0.19634 0.01285
498.80000 0.90520 -0.29078 -0.02566
498.90000 0.76101 -0.15949 -0.01248
499.00000 0.86758 -0.02857 0.01537
499.10000 0.81372 0.14950 -0.03787
499.20000 0.85904 0.08096 -0.02558
499.30000 0.88068 -0.05064 0.00074
499.40000 0.78670 -0.05198 0.03415
499.50000 0.90976 0.25183 0.01892
499.60000 0.82946 0.39680 -0.00806
499.70000 0.78105 0.30102 -0.02764
499.80000 0.88711 0.07538 0.03752
499.90000 0.81774 -0.07926 -0.06621
500.00000 0.79924 -0.03955 0.01252
