# t[ps]  x[nm]  y[nm]  z[nm]
0.00000 0.08804 0.00840 -0.00107
0.10000 1.30324 0.00003 -0.02797
0.20000 1.85127 -0.06574 -0.00635
0.30000 1.37074 -0.13072 0.03330
0.40000 1.33893 0.08154 0.02224
0.50000 1.42881 0.40831 0.02366
0.60000 1.50738 0.35283 -0.03328
0.70000 1.39392 0.07521 -0.01500
0.80000 1.44447 0.09170 -0.00302
0.90000 1.47808 0.02605 -0.01075
1.00000 1.38948 0.04667 0.01641
1.10000 1.45593 0.10820 -0.01508
1.20000 1.47340 0.18373 0.04110
1.30000 1.49734 0.31447 -0.03267
1.40000 1.48010 0.24367 -0.05612
1.50000 1.49196 0.03542 0.01133
1.60000 1.47074 -0.04708 0.01024
1.70000 1.51569 -0.00229 0.02676
1.80000 1.48149 0.32009 -0.03647
1.90000 1.45377 0.36838 0.00291
2.00000 1.43089 0.18684 0.05898
2.10000 1.47783 0.01871 0.03536
2.20000 1.42886 -0.21272 -0.00487
2.30000 1.49218 -0.22672 0.02175
2.40000 1.47804 0.16929 -0.02648
2.50000 1.45467 0.29008 0.02404
2.60000 1.49306 0.20197 0.02277
2.70000 1.37006 -0.21325 -0.04192
2.80000 1.46252 -0.13307 0.01733
2.90000 1.49418 -0.04289 0.00737
3.00000 1.46926 -0.09992 -0.00947
3.10000 1.49840 -0.01990 0.03585
3.20000 1.44031 0.08344 -0.05927
3.30000 1.43314 0.03161 -0.00557
3.40000 1.52315 0.18829 0.03903
3.50000 1.44909 0.01518 -0.03422
3.60000 1.45721 -0.15808 -0.04002
3.70000 1.47518 -0.03146 -0.03073
3.80000 1.45967 0.10368 0.01066
3.90000 1.46763 0.11955 0.00009
4.00000 1.41754 0.22867 -0.02601
4.10000 1.49540 0.25327 0.02857
4.20000 1.50097 0.12596 -0.00257
4.30000 1.37133 0.01434 -0.02483
4.40000 1.40703 -0.04834 0.01015
4.50000 1.53063 -0.30881 0.03978
4.60000 1.45395 -0.14127 -0.06700
4.70000 1.45412 0.14351 0.00098
4.80000 1.42078 -0.17358 0.02025
4.90000 1.47737 -0.35366 -0.02660
5.00000 1.46408 -0.36498 -0.01789
5.10000 1.45234 -0.10451 0.04269
5.20000 1.43972 -0.00731 -0.03834
5.30000 1.49715 0.08281 0.04212
5.40000 1.48046 0.04444 -0.02306
5.50000 1.48298 0.02840 -0.01545
5.60000 1.49611 -0.12382 0.02868
5.70000 1.48686 -0.35211 0.01067
5.80000 1.43015 -0.08227 0.00308
5.90000 1.45044 0.10926 0.07244
6.00000 1.50022 0.05724 -0.08821
6.10000 1.51029 0.04214 0.01923
6.20000 1.43644 0.07212 0.00438
6.30000 1.45201 0.12126 -0.04137
6.40000 1.44330 0.02441 0.01916
6.50000 1.47412 -0.07810 0.01490
6.60000 1.45932 -0.04965 -0.02017
6.70000 1.43849 -0.16595 -0.00645
6.80000 1.45830 -0.17819 -0.01924
6.90000 1.44153 -0.18847 0.02602
7.00000 1.43171 -0.07799 0.02361
7.10000 1.47220 0.03771 -0.03653
7.20000 1.52894 0.07116 -0.00444
7.30000 1.42428 0.00321 -0.00071
7.40000 1.42224 -0.09661 0.00909
7.50000 1.47197 -0.26079 -0.04461
7.60000 1.43461 -0.24110 0.02382
7.70000 1.55317 -0.25558 -0.03479
7.80000 1.43780 -0.22113 0.01002
7.90000 1.41308 -0.08313 0.01350
8.00000 1.52752 -0.06186 0.00991
8.10000 1.49365 -0.07344 0.00046
8.20000 1.39507 0.09351 0.05737
8.30000 1.47097 0.14152 -0.02291
8.40000 1.50767 -0.06785 -0.02870
8.50000 1.44057 -0.12396 0.05702
8.60000 1.47622 0.00792 -0.01614
8.70000 1.42995 0.28676 0.05339
8.80000 1.43532 0.31927 -0.03232
8.90000 1.49740 0.20171 -0.04808
9.00000 1.44752 0.12285 0.01825
9.10000 1.49967 0.11330 0.07850
9.20000 1.49031 0.23038 -0.06443
9.30000 1.47652 0.08248 -0.00636
9.40000 1.44352 0.02722 0.09381
9.50000 1.47693 0.23755 -0.02809
9.60000 1.45945 0.25121 0.00385
9.70000 1.48302 0.05437 0.04350
9.80000 1.52636 -0.20879 -0.07169
9.90000 1.52157 -0.40518 0.00313
10.00000 1.45132 -0.14086 0.09211
10.10000 1.45203 -0.05981 0.06851
10.20000 1.46589 -0.16869 -0.01823
10.30000 1.52378 -0.04645 0.08224
10.40000 1.44881 0.05067 0.00081
10.50000 1.45040 -0.10799 -0.04324
10.60000 1.44795 -0.30785 0.03756
10.70000 1.50595 -0.42114 -0.02056
10.80000 1.47599 -0.36474 -0.05455
10.90000 1.49164 -0.25019 -0.00449
11.00000 1.47173 -0.12538 0.03406
11.10000 1.45916 0.04606 -0.01191
11.20000 1.47515 0.24104 -0.07252
11.30000 1.44181 0.23245 -0.01088
11.40000 1.43718 0.01229 -0.03340
11.50000 1.49169 -0.23619 -0.00549
11.60000 1.40918 -0.36040 -0.02676
11.70000 1.46338 -0.28645 -0.02244
11.80000 1.50786 -0.01858 0.01631
11.90000 1.44847 0.03192 0.01367
12.00000 1.47057 0.07061 -0.00877
12.10000 1.43790 0.17286 0.05841
12.20000 1.44180 0.04874 -0.03074
12.30000 1.47044 -0.05308 -0.02248
12.40000 1.49477 0.08851 0.08589
12.50000 1.48091 0.20389 0.03532
12.60000 1.46758 0.03248 -0.02787
12.70000 1.49189 -0.22507 0.02120
12.80000 1.44613 -0.20064 -0.01516
12.90000 1.49260 -0.04838 0.04406
13.00000 1.41277 0.04152 0.00353
13.10000 1.47341 -0.10546 0.01282
13.20000 1.53829 -0.18302 0.01290
13.30000 1.39409 -0.08528 -0.01363
13.40000 1.49839 -0.03548 0.03877
13.50000 1.42262 -0.05819 0.04501
13.60000 1.50005 0.09571 0.00603
13.70000 1.53786 0.07557 0.02062
13.80000 1.43068 0.07334 -0.05777
13.90000 1.49143 0.03641 0.02663
14.00000 1.47212 -0.07172 -0.02776
14.10000 1.47585 -0.09804 0.00021
14.20000 1.40714 -0.09010 0.05213
14.30000 1.48215 -0.06409 0.01361
14.40000 1.44200 -0.04125 -0.02205
14.50000 1.42727 -0.04723 -0.00433
14.60000 1.42903 -0.02354 -0.03766
14.70000 1.43035 -0.05058 0.01224
14.80000 1.45439 0.01891 -0.01384
14.90000 1.39653 0.06671 -0.02057
15.00000 1.44995 -0.04427 0.05300
15.10000 1.46612 -0.03391 -0.08069
15.20000 1.46531 -0.27997 0.00753
15.30000 1.44014 -0.31797 0.05893
15.40000 1.44158 -0.07170 0.02534
15.50000 1.49479 0.27524 -0.03522
15.60000 1.47684 0.32727 -0.03731
15.70000 1.42301 0.13657 0.03983
15.80000 1.44913 -0.10630 -0.02097
15.90000 1.48526 -0.15194 0.00902
16.00000 1.44887 -0.15815 -0.05480
16.10000 1.42236 -0.00675 -0.00869
16.20000 1.49634 -0.17866 0.03150
16.30000 1.50027 -0.17057 -0.00883
16.40000 1.43007 -0.04877 -0.05187
16.50000 1.39988 0.15692 0.03063
16.60000 1.49217 0.06217 -0.00820
16.70000 1.40734 -0.01224 -0.02338
16.80000 1.47681 -0.10868 0.01080
16.90000 1.50548 -0.21320 0.00592
17.00000 1.48108 -0.20159 0.06192
17.10000 1.48826 0.02852 -0.02471
17.20000 1.47189 0.17917 -0.00022
17.30000 1.49774 0.09506 0.02965
17.40000 1.48337 0.02835 0.02359
17.50000 1.42966 -0.09736 -0.00091
17.60000 1.44001 -0.01722 0.01233
17.70000 1.47176 -0.09849 0.00764
17.80000 1.44847 0.10761 -0.00027
17.90000 1.44569 0.23901 0.02505
18.00000 1.44267 0.21274 0.01700
18.10000 1.46084 0.04534 0.04302
18.20000 1.42615 -0.09748 0.01482
18.30000 1.48158 0.01364 -0.02312
18.40000 1.45318 0.04992 -0.02710
18.50000 1.45262 -0.02154 0.05586
18.60000 1.42236 0.05301 0.02609
18.70000 1.46489 -0.01574 -0.07554
18.80000 1.50755 -0.14855 0.04723
18.90000 1.49184 -0.27417 0.04145
19.00000 1.40662 -0.17755 -0.00061
19.10000 1.49611 0.08014 0.03773
19.20000 1.44546 0.19019 -0.00730
19.30000 1.46051 0.14145 0.04755
19.40000 1.44615 0.21327 0.03507
19.50000 1.49728 0.03174 -0.04090
19.60000 1.48437 -0.19375 0.01182
19.70000 1.43814 -0.28718 0.04357
19.80000 1.45802 -0.22984 0.01356
19.90000 1.51667 -0.10717 -0.00637
20.00000 1.44058 -0.07149 0.00019
20.10000 1.39044 -0.03521 0.02347
20.20000 1.45050 -0.11597 -0.05649
20.30000 1.45298 -0.02225 -0.01340
20.40000 1.49066 0.06166 0.04229
20.50000 1.49019 0.00023 -0.00285
20.60000 1.44711 0.04302 -0.05773
20.70000 1.48083 0.04850 0.01495
20.80000 1.46621 0.04489 -0.00845
20.90000 1.42830 0.07918 -0.03328
21.00000 1.46055 0.09904 0.01851
21.10000 1.49356 0.09644 0.02561
21.20000 1.47819 -0.01220 -0.01533
21.30000 1.44563 -0.10611 0.04083
21.40000 1.46847 -0.14910 -0.04445
21.50000 1.50259 -0.06315 -0.02213
21.60000 1.43592 -0.16414 0.02212
21.70000 1.46697 -0.05684 -0.01707
21.80000 1.45840 0.06708 0.00932
21.90000 1.46252 0.19337 0.01769
22.00000 1.44148 0.13608 -0.01059
22.10000 1.50460 -0.09398 -0.08023
22.20000 1.46600 -0.20069 0.06000
22.30000 1.44330 0.09724 0.03736
22.40000 1.44698 0.07760 -0.03745
22.50000 1.51373 -0.18860 -0.01608
22.60000 1.48704 -0.15020 0.02637
22.70000 1.45387 0.00341 0.02530
22.80000 1.44404 0.01181 -0.03767
22.90000 1.47349 -0.05667 -0.00694
23.00000 1.45903 -0.08716 -0.03528
23.10000 1.47706 -0.00940 -0.02305
23.20000 1.49325 0.09685 0.03860
23.30000 1.44494 -0.18959 -0.01450
23.40000 1.47524 -0.26487 0.04320
23.50000 1.53104 -0.00281 0.01517
23.60000 1.47751 0.31672 0.01600
23.70000 1.39510 0.22296 0.01703
23.80000 1.44631 0.08653 0.00608
23.90000 1.48583 0.05420 0.01628
24.00000 1.47312 -0.03566 0.06549
24.10000 1.43226 0.01333 -0.02195
24.20000 1.47501 -0.14057 0.03149
24.30000 1.45190 -0.12412 -0.00063
24.40000 1.43376 -0.12715 -0.02844
24.50000 1.42571 0.02470 -0.05342
24.60000 1.54413 0.16413 0.04570
24.70000 1.43449 0.04757 0.04445
24.80000 1.42157 -0.19939 0.01933
24.90000 1.48463 -0.24401 -0.00438
25.00000 1.51043 -0.01312 -0.06581
25.10000 1.42261 0.06672 -0.05678
25.20000 1.45127 0.06997 0.11651
25.30000 1.44287 0.01519 0.04072
25.40000 1.46770 -0.01236 -0.03630
25.50000 1.45259 -0.09783 0.04983
25.60000 1.48375 -0.07702 0.04445
25.70000 1.46699 0.08058 -0.03738
25.80000 1.44807 0.00657 -0.03834
25.90000 1.45630 0.10452 -0.01124
26.00000 1.44388 -0.02730 0.07390
26.10000 1.49872 -0.15142 -0.05175
26.20000 1.47295 -0.20361 -0.08153
26.30000 1.46225 -0.05979 0.02163
26.40000 1.43680 0.15840 -0.00671
26.50000 1.48988 0.26829 0.03074
26.60000 1.47365 0.10757 0.04287
26.70000 1.44547 0.18445 -0.02115
26.80000 1.45015 0.11046 -0.03972
26.90000 1.47909 0.16894 -0.02121
27.00000 1.49997 0.16321 0.11562
27.10000 1.40754 0.18951 0.01184
27.20000 1.48101 0.00742 -0.06235
27.30000 1.47490 -0.25213 0.02894
27.40000 1.50200 -0.18940 -0.04444
27.50000 1.44457 0.08015 0.03030
27.60000 1.47450 0.27798 0.00269
27.70000 1.46331 0.13908 0.02557
27.80000 1.48235 0.07576 -0.02928
27.90000 1.49679 0.01353 0.00642
28.00000 1.46120 -0.09718 0.01656
28.10000 1.53320 -0.07624 0.03586
28.20000 1.46356 0.07573 0.00442
28.30000 1.42515 -0.00729 -0.01222
28.40000 1.42922 0.07098 0.04439
28.50000 1.49592 0.17812 -0.03344
28.60000 1.50333 0.22268 -0.01345
28.70000 1.46602 0.09135 -0.01440
28.80000 1.43043 -0.12676 0.01154
28.90000 1.49958 -0.11293 0.01886
29.00000 1.46191 0.03541 0.00787
29.10000 1.40350 0.16209 0.07863
29.20000 1.51293 0.16648 -0.05181
29.30000 1.41299 0.18374 -0.01027
29.40000 1.39422 0.04664 0.04515
29.50000 1.54977 0.14795 0.00079
29.60000 1.47298 0.19013 -0.02623
29.70000 1.40560 -0.12115 0.01494
29.80000 1.45685 -0.16834 -0.03760
29.90000 1.51738 -0.09601 0.00411
30.00000 1.44461 -0.18642 0.01458
30.10000 1.43076 -0.19171 -0.06861
30.20000 1.47562 -0.03186 -0.01642
30.30000 1.49548 0.03421 0.00348
30.40000 1.41348 -0.00102 -0.03469
30.50000 1.40025 -0.16833 0.02803
30.60000 1.54255 -0.14357 -0.03977
30.70000 1.47653 -0.14295 0.04297
30.80000 1.38519 -0.09967 -0.00550
30.90000 1.49004 -0.13249 0.02706
31.00000 1.51371 -0.24020 0.06559
31.10000 1.41145 -0.01490 -0.03381
31.20000 1.45724 0.15114 -0.02855
31.30000 1.48556 -0.00110 0.04371
31.40000 1.47839 -0.15147 -0.01704
31.50000 1.41427 -0.09455 0.01675
31.60000 1.49146 -0.13947 -0.04698
31.70000 1.47949 -0.08066 -0.02621
31.80000 1.46219 0.08605 0.07511
31.90000 1.49781 0.11267 -0.01388
32.00000 1.45970 0.18790 -0.04838
32.10000 1.44098 -0.01531 -0.01351
32.20000 1.45366 -0.03460 0.03018
32.30000 1.47136 -0.06049 0.01647
32.40000 1.49040 0.05384 0.00995
32.50000 1.53538 0.20657 -0.01141
32.60000 1.42877 0.15816 0.02397
32.70000 1.46086 -0.03935 0.03052
32.80000 1.46171 0.02891 -0.02035
32.90000 1.44875 0.05343 -0.02792
33.00000 1.46318 -0.23614 -0.01694
33.10000 1.48309 -0.45735 -0.01247
33.20000 1.39637 -0.29833 0.05419
33.30000 1.42220 0.10377 -0.02982
33.40000 1.46184 0.26993 -0.03371
33.50000 1.48584 0.24562 0.07576
33.60000 1.41315 0.28673 -0.02529
33.70000 1.50335 0.14252 -0.03084
33.80000 1.47381 -0.12166 -0.02192
33.90000 1.43502 -0.11447 0.05477
34.00000 1.45091 0.02328 0.01159
34.10000 1.46192 0.00272 -0.05114
34.20000 1.44225 0.02530 0.01314
34.30000 1.45528 0.12885 -0.02206
34.40000 1.50249 0.10240 0.01323
34.50000 1.43748 0.35012 -0.03420
34.60000 1.40431 0.37120 0.02454
34.70000 1.45886 0.06720 0.02482
34.80000 1.49744 -0.08078 -0.03800
34.90000 1.48923 -0.04583 -0.00180
35.00000 1.49422 0.04984 -0.01137
35.10000 1.41172 -0.02238 -0.02028
35.20000 1.42044 0.01255 0.04134
35.30000 1.49757 0.12846 -0.01807
35.40000 1.53750 0.10040 0.00697
35.50000 1.43661 0.09528 -0.04699
35.60000 1.38929 0.00534 0.00218
35.70000 1.55757 0.03261 0.04792
35.80000 1.43098 0.15936 -0.04790
35.90000 1.39674 0.10453 -0.00575
36.00000 1.46951 -0.04881 -0.02557
36.10000 1.42504 -0.28120 0.01343
36.20000 1.43849 -0.17773 0.05557
36.30000 1.49739 0.04204 0.01746
36.40000 1.43178 0.12779 -0.02184
36.50000 1.45532 0.32365 -0.02255
36.60000 1.51733 0.27978 0.01392
36.70000 1.48661 0.06263 -0.01028
36.80000 1.45441 -0.09222 -0.02544
36.90000 1.46635 -0.01365 0.03678
37.00000 1.46727 -0.11606 -0.03131
37.10000 1.46038 -0.17577 -0.01606
37.20000 1.48108 -0.09041 -0.05866
37.30000 1.52061 -0.06873 0.05928
37.40000 1.41368 -0.12164 -0.02677
37.50000 1.45697 -0.11131 -0.03453
37.60000 1.47562 -0.19065 0.03020
37.70000 1.43674 -0.26490 -0.02420
37.80000 1.46148 -0.04556 0.02981
37.90000 1.53053 -0.02139 0.02089
38.00000 1.51076 0.00748 0.03008
38.10000 1.42927 -0.02136 0.02134
38.20000 1.46951 0.03027 -0.04359
38.30000 1.42972 0.09423 0.05809
38.40000 1.47402 0.08235 -0.02325
38.50000 1.43626 0.07953 0.00222
38.60000 1.51107 0.20288 0.05131
38.70000 1.43520 0.02381 0.00996
38.80000 1.42919 -0.04024 -0.04940
38.90000 1.49448 -0.20427 0.02063
39.00000 1.48251 -0.13972 -0.01171
39.10000 1.44031 0.02453 0.05197
39.20000 1.48314 0.21318 0.00504
39.30000 1.48307 0.11185 -0.04083
39.40000 1.49235 -0.19917 -0.04717
39.50000 1.47392 -0.21054 0.02234
39.60000 1.47156 -0.18828 0.02134
39.70000 1.52205 -0.08298 0.05095
39.80000 1.44928 0.02940 -0.00085
39.90000 1.40412 0.06337 -0.00006
40.00000 1.46509 0.21376 -0.09048
40.10000 1.50358 0.16639 -0.02090
40.20000 1.49765 -0.01972 0.04668
40.30000 1.49910 0.00497 -0.00380
40.40000 1.42569 0.12455 0.00553
40.50000 1.49707 0.08728 0.01785
40.60000 1.49539 0.06126 0.03050
40.70000 1.48358 0.15134 0.04398
40.80000 1.41835 0.09755 0.01321
40.90000 1.43577 0.08286 -0.08804
41.00000 1.38492 -0.02861 0.02687
41.10000 1.48965 0.02660 -0.01170
41.20000 1.50966 -0.10968 0.00251
41.30000 1.45601 -0.15276 -0.01001
41.40000 1.39160 -0.06247 -0.00978
41.50000 1.49956 -0.07873 0.03160
41.60000 1.48749 -0.01039 -0.02907
41.70000 1.43690 0.03926 0.09018
41.80000 1.48389 0.23127 -0.06827
41.90000 1.41540 0.24782 0.02173
42.00000 1.48383 0.18390 0.02099
42.10000 1.50224 -0.01817 -0.00678
42.20000 1.55305 -0.07511 -0.01170
42.30000 1.40161 -0.16953 0.08272
42.40000 1.43466 0.01486 -0.04886
42.50000 1.52162 -0.04285 -0.06203
42.60000 1.45632 -0.09783 0.03379
42.70000 1.44889 0.10605 0.05781
42.80000 1.47412 0.07502 0.02989
42.90000 1.49111 -0.14873 -0.08406
43.00000 1.50530 -0.42117 -0.00907
43.10000 1.51289 -0.42133 0.04371
43.20000 1.41062 -0.18943 0.04582
43.30000 1.46915 0.00066 -0.01571
43.40000 1.51790 0.02431 -0.02999
43.50000 1.44257 0.20200 -0.00108
43.60000 1.46337 0.24644 0.00494
43.70000 1.41422 0.12008 0.00862
43.80000 1.47274 -0.17175 0.01124
43.90000 1.46465 -0.27892 -0.05216
44.00000 1.44466 -0.17382 0.02791
44.10000 1.48348 0.11702 0.03318
44.20000 1.43108 0.29682 0.02107
44.30000 1.46010 0.28702 -0.03560
44.40000 1.49118 0.08745 0.03130
44.50000 1.40835 -0.15913 0.04760
44.60000 1.45770 -0.09994 -0.03719
44.70000 1.45635 0.04156 0.07676
44.80000 1.48679 0.18087 -0.04899
44.90000 1.51294 0.08808 0.00949
45.00000 1.38920 0.09911 0.04626
45.10000 1.44939 0.27982 -0.02345
45.20000 1.50341 0.30428 -0.06035
45.30000 1.52757 0.21529 0.03668
45.40000 1.46675 0.10794 -0.00465
45.50000 1.46104 0.11390 -0.02849
45.60000 1.45040 0.17216 0.07349
45.70000 1.47561 0.14913 -0.01231
45.80000 1.48077 -0.07297 0.03930
45.90000 1.42051 0.10515 0.04131
46.00000 1.48836 0.18328 -0.02094
46.10000 1.44349 0.11710 -0.01088
46.20000 1.42604 -0.21100 -0.04711
46.30000 1.48219 -0.23213 0.05354
46.40000 1.46073 -0.01902 -0.01237
46.50000 1.42537 0.14527 -0.00251
46.60000 1.45546 0.16934 0.01805
46.70000 1.45318 0.20605 0.00622
46.80000 1.44961 0.08405 0.01831
46.90000 1.47891 -0.08431 -0.00459
47.00000 1.46948 -0.09956 0.05137
47.10000 1.36931 -0.11967 -0.02006
47.20000 1.46498 0.07045 0.02171
47.30000 1.46334 0.14225 0.02319
47.40000 1.41786 -0.01893 -0.04009
47.50000 1.52284 0.04508 0.00461
47.60000 1.46485 0.08334 0.02061
47.70000 1.44964 -0.01246 -0.03290
47.80000 1.45700 -0.02354 -0.03416
47.90000 1.46997 0.16694 0.01941
48.00000 1.45242 0.09114 -0.01386
48.10000 1.43835 -0.02971 -0.02568
48.20000 1.48048 -0.18841 0.03560
48.30000 1.45189 -0.18417 -0.06011
48.40000 1.43652 -0.08578 0.04305
48.50000 1.49246 -0.04326 -0.01512
48.60000 1.51759 -0.12411 -0.09215
48.70000 1.45332 -0.04840 0.08888
48.80000 1.47497 0.16169 0.04648
48.90000 1.50879 0.14751 -0.03576
49.00000 1.43959 0.04097 -0.02467
49.10000 1.51635 0.02246 -0.00427
49.20000 1.47809 -0.04403 0.01934
49.30000 1.45869 0.01881 -0.06131
49.40000 1.48532 0.06785 0.01611
49.50000 1.45422 -0.01368 -0.00470
49.60000 1.45265 0.10489 -0.04549
49.70000 1.47899 0.15741 0.04978
49.80000 1.41769 0.22970 -0.00511
49.90000 1.50542 0.29392 -0.02974
50.00000 1.49154 0.18517 -0.01498
50.10000 1.42834 -0.17037 0.03762
50.20000 1.44841 -0.20047 -0.04182
50.30000 1.50799 -0.17170 0.00751
50.40000 1.50194 -0.09745 -0.01320
50.50000 1.48519 0.03490 -0.00631
50.60000 1.34226 0.04815 0.08417
50.70000 1.48061 -0.02321 -0.00084
50.80000 1.53610 -0.12529 0.02934
50.90000 1.39930 -0.23862 -0.01665
51.00000 1.47766 -0.15548 -0.00819
51.10000 1.52507 0.08390 0.05384
51.20000 1.42676 0.39115 -0.07006
51.30000 1.47866 0.38315 -0.01077
51.40000 1.42857 0.19484 0.01365
51.50000 1.44121 -0.03846 0.02539
51.60000 1.50955 0.08047 0.00622
51.70000 1.48470 0.28414 -0.05667
51.80000 1.39165 0.23069 0.00516
51.90000 1.50196 0.13761 -0.00645
52.00000 1.56681 0.06633 0.03806
52.10000 1.38697 -0.06841 -0.03274
52.20000 1.38310 0.02111 0.05069
52.30000 1.52146 0.04091 0.02708
52.40000 1.50765 0.12029 -0.09568
52.50000 1.41763 -0.09692 0.02178
52.60000 1.45971 -0.25823 -0.00887
52.70000 1.51467 -0.21248 0.01416
52.80000 1.46218 -0.14253 0.00842
52.90000 1.48046 0.01182 0.04644
53.00000 1.38879 -0.00659 -0.06007
53.10000 1.44382 -0.04659 0.02375
53.20000 1.50852 0.10172 0.06342
53.30000 1.45927 0.14095 -0.06699
53.40000 1.45514 0.03146 0.02257
53.50000 1.45437 -0.08510 0.05919
53.60000 1.43346 0.14419 -0.02776
53.70000 1.44296 0.07175 -0.05145
53.80000 1.42000 -0.09285 0.04166
53.90000 1.47649 -0.17708 0.03835
54.00000 1.46779 -0.02823 -0.06357
54.10000 1.45665 0.07205 0.00212
54.20000 1.51082 0.02177 0.00013
54.30000 1.45094 0.10081 -0.00863
54.40000 1.45071 0.27115 0.02067
54.50000 1.52051 0.25816 -0.01140
54.60000 1.44726 0.05622 0.01912
54.70000 1.45896 0.03016 0.01055
54.80000 1.48388 0.09668 0.00514
54.90000 1.43690 0.10826 -0.00409
55.00000 1.48692 0.03956 -0.02014
55.10000 1.48323 0.00083 -0.00373
55.20000 1.40301 -0.15772 -0.01061
55.30000 1.42226 -0.26005 -0.04559
55.40000 1.58539 -0.09429 0.04959
55.50000 1.44870 -0.00629 -0.01279
55.60000 1.38900 0.13979 -0.00638
55.70000 1.41313 0.23958 0.00708
55.80000 1.49031 0.23928 -0.04353
55.90000 1.48745 0.13763 0.01079
56.00000 1.44335 -0.13475 0.01073
56.10000 1.46984 -0.12749 -0.03781
56.20000 1.45670 -0.00590 -0.00062
56.30000 1.46454 0.11982 0.01478
56.40000 1.46358 0.05874 -0.04784
56.50000 1.42126 0.20020 -0.00356
56.60000 1.47882 0.20407 0.04956
56.70000 1.46709 0.09843 -0.06588
56.80000 1.49011 -0.00044 0.00201
56.90000 1.44782 -0.05383 0.00356
57.00000 1.45725 0.08173 0.01804
57.10000 1.47738 0.04428 -0.02731
57.20000 1.46003 -0.02408 0.02965
57.30000 1.47981 -0.16777 0.01959
57.40000 1.44673 -0.22208 -0.00820
57.50000 1.52844 -0.07643 0.00386
57.60000 1.47972 -0.01827 -0.00790
57.70000 1.44894 0.11326 -0.03627
57.80000 1.46236 0.10715 -0.03732
57.90000 1.48474 0.17248 0.02851
58.00000 1.41876 0.19560 -0.04833
58.10000 1.44699 0.18197 0.00678
58.20000 1.42177 0.27635 -0.07026
58.30000 1.50639 0.30946 0.03922
58.40000 1.51024 0.12182 0.03007
58.50000 1.43100 -0.05450 -0.00073
58.60000 1.44575 0.05938 -0.04895
58.70000 1.49163 0.12695 0.02718
58.80000 1.41005 0.16708 0.05164
58.90000 1.48768 0.08910 -0.00245
59.00000 1.48593 -0.09204 -0.00740
59.10000 1.41191 -0.01140 -0.01412
59.20000 1.47690 0.10978 -0.03087
59.30000 1.46915 0.05410 -0.03341
59.40000 1.48411 -0.09406 0.01765
59.50000 1.46836 0.05888 -0.00148
59.60000 1.43633 0.38605 -0.00360
59.70000 1.41658 0.23253 0.06176
59.80000 1.45257 0.09501 -0.04955
59.90000 1.47514 0.04296 -0.05905
60.00000 1.45440 0.18710 0.05789
60.10000 1.49552 0.18901 -0.04560
60.20000 1.43371 0.00005 -0.05399
60.30000 1.49752 -0.06469 0.04680
60.40000 1.44112 0.01811 0.05315
60.50000 1.43943 0.15181 -0.00333
60.60000 1.48098 0.10148 -0.04050
60.70000 1.44890 -0.07027 0.00357
60.80000 1.47292 -0.21840 0.02614
60.90000 1.49715 -0.25398 -0.04975
61.00000 1.46815 -0.30265 -0.06664
61.10000 1.45469 -0.09150 0.03490
61.20000 1.47306 0.10142 0.06417
61.30000 1.48555 -0.09783 -0.05001
61.40000 1.46092 -0.18881 -0.02380
61.50000 1.41949 -0.20522 0.04225
61.60000 1.50107 -0.21829 0.01882
61.70000 1.44043 -0.01939 0.01244
61.80000 1.42050 0.09460 0.01147
61.90000 1.51100 0.02180 -0.09101
62.00000 1.44960 -0.00537 -0.04459
62.10000 1.42656 0.11307 0.03706
62.20000 1.47642 0.28296 0.02284
62.30000 1.50184 0.19959 -0.00082
62.40000 1.43093 0.01460 -0.06282
62.50000 1.40737 -0.11311 -0.02692
62.60000 1.47237 -0.23826 0.03932
62.70000 1.48817 -0.22574 0.00936
62.80000 1.45830 -0.00295 -0.04299
62.90000 1.45074 0.17649 0.03349
63.00000 1.52218 0.02900 -0.01850
63.10000 1.43917 -0.10820 -0.02494
63.20000 1.41722 -0.13174 -0.00037
63.30000 1.46243 -0.21377 -0.01076
63.40000 1.49088 -0.08424 -0.03347
63.50000 1.45489 0.01384 0.00286
63.60000 1.48603 0.08558 0.00632
63.70000 1.49676 0.21096 -0.01739
63.80000 1.40654 0.31155 -0.00449
63.90000 1.49456 0.20603 0.02279
64.00000 1.45760 0.06116 -0.02452
64.10000 1.38606 0.08661 0.03267
64.20000 1.45769 0.06750 -0.01135
64.30000 1.54722 0.08467 0.02887
64.40000 1.45037 -0.00603 0.00923
64.50000 1.45592 -0.09988 -0.07246
64.60000 1.50791 -0.07522 0.06405
64.70000 1.51035 0.02934 -0.00502
64.80000 1.43195 0.36491 -0.05029
64.90000 1.41174 0.28848 -0.02342
65.00000 1.45852 0.11492 0.08078
65.10000 1.53671 -0.04579 0.00236
65.20000 1.47167 -0.04142 -0.03772
65.30000 1.45381 0.01425 0.01755
65.40000 1.39332 0.05533 0.02235
65.50000 1.47028 0.04365 0.02316
65.60000 1.46911 -0.05079 0.02105
65.70000 1.43472 -0.17444 -0.00157
65.80000 1.46159 0.09921 0.01888
65.90000 1.49805 0.16399 -0.01661
66.00000 1.46858 0.06063 0.02563
66.10000 1.46609 0.08572 -0.06562
66.20000 1.46106 0.15033 0.01125
66.30000 1.48284 0.05193 0.02435
66.40000 1.47230 0.09273 0.03857
66.50000 1.50202 -0.01165 -0.09977
66.60000 1.39527 -0.09875 -0.00205
66.70000 1.41619 0.02731 0.05112
66.80000 1.58509 0.17448 -0.03169
66.90000 1.48920 0.17504 -0.01504
67.00000 1.45991 0.16622 0.03333
67.10000 1.41878 0.09423 -0.04486
67.20000 1.49624 0.04182 -0.04984
67.30000 1.46876 0.10078 -0.01541
67.40000 1.46200 0.13608 0.00770
67.50000 1.43796 0.00940 -0.02946
67.60000 1.46673 -0.08682 -0.01489
67.70000 1.45712 -0.25043 0.01520
67.80000 1.43672 -0.22324 -0.06700
67.90000 1.46522 -0.05735 0.03005
68.00000 1.46128 -0.00087 0.08106
68.10000 1.43083 -0.03892 -0.06659
68.20000 1.47884 -0.15255 -0.05106
68.30000 1.44762 -0.13276 0.04792
68.40000 1.46531 -0.05505 0.01305
68.50000 1.49396 0.06630 -0.03113
68.60000 1.48715 0.23720 0.03439
68.70000 1.48415 0.00738 -0.04512
68.80000 1.47551 -0.05661 -0.01105
68.90000 1.45451 0.01620 0.01601
69.00000 1.48913 0.04459 -0.02285
69.10000 1.48997 0.06624 0.00564
69.20000 1.41494 0.04165 0.03079
69.30000 1.42154 -0.09590 -0.01494
69.40000 1.49406 -0.06033 -0.01338
69.50000 1.44765 -0.00388 0.06479
69.60000 1.45002 -0.11423 -0.02047
69.70000 1.45867 -0.23314 -0.06144
69.80000 1.50257 -0.11963 0.00123
69.90000 1.36920 -0.00329 0.07562
70.00000 1.45296 0.02860 0.01729
70.10000 1.54282 -0.01545 -0.05662
70.20000 1.44559 -0.03700 0.02720
70.30000 1.38464 0.16237 -0.01782
70.40000 1.45766 0.32452 -0.06955
70.50000 1.51136 0.15606 0.02225
70.60000 1.41082 0.03805 -0.00526
70.70000 1.43397 0.02569 0.04280
70.80000 1.45933 0.30165 -0.01964
70.90000 1.46494 0.14766 -0.03225
71.00000 1.49949 0.01965 -0.03730
71.10000 1.47954 -0.04119 0.01354
71.20000 1.44496 -0.09687 0.07016
71.30000 1.46124 -0.15232 0.00071
71.40000 1.45394 0.04456 -0.06552
71.50000 1.45476 0.01379 0.00285
71.60000 1.46796 -0.05576 0.03937
71.70000 1.47776 -0.09500 -0.02284
71.80000 1.48249 -0.03347 0.00804
71.90000 1.46175 0.11006 -0.01114
72.00000 1.50429 0.19188 0.01982
72.10000 1.49900 0.21410 0.04284
72.20000 1.43530 0.16211 -0.01914
72.30000 1.44856 0.04970 -0.00826
72.40000 1.46785 0.12527 -0.02976
72.50000 1.46229 0.08002 -0.03338
72.60000 1.44738 0.05619 -0.04042
72.70000 1.45815 0.01633 0.01837
72.80000 1.52508 -0.05656 0.00826
72.90000 1.51339 -0.02529 -0.01144
73.00000 1.43174 0.06102 -0.03832
73.10000 1.45771 -0.02956 0.05535
73.20000 1.42840 -0.02671 0.02714
73.30000 1.50671 -0.00251 0.02476
73.40000 1.50381 0.12768 -0.09089
73.50000 1.45315 0.27684 0.03437
73.60000 1.45990 0.36835 0.04362
73.70000 1.50080 0.28927 -0.00812
73.80000 1.38746 0.23134 -0.03984
73.90000 1.44760 0.11940 0.02158
74.00000 1.51733 -0.15989 0.05427
74.10000 1.44375 -0.19446 -0.05393
74.20000 1.43389 -0.08708 0.04145
74.30000 1.46556 0.01685 -0.00296
74.40000 1.49015 -0.07124 0.02486
74.50000 1.45780 -0.00930 -0.02901
74.60000 1.43288 -0.15581 0.03196
74.70000 1.47474 -0.15494 -0.02431
74.80000 1.50868 0.01528 0.01861
74.90000 1.45458 0.17287 0.03155
75.00000 1.44332 0.21588 -0.04488
75.10000 1.47645 0.04334 -0.03836
75.20000 1.44772 -0.13655 -0.02156
75.30000 1.44259 -0.04086 -0.00749
75.40000 1.49636 -0.20920 0.04314
75.50000 1.47691 -0.20730 -0.02806
75.60000 1.51978 -0.05776 0.00261
75.70000 1.40002 0.06147 -0.04419
75.80000 1.47277 0.01649 0.03958
75.90000 1.45757 -0.05307 0.04332
76.00000 1.45394 0.09318 0.04602
76.10000 1.49278 0.06038 -0.06078
76.20000 1.46641 -0.02706 0.03611
76.30000 1.51393 -0.03891 -0.00329
76.40000 1.46482 -0.15997 0.02589
76.50000 1.40513 -0.20258 -0.01288
76.60000 1.48796 -0.08591 0.03253
76.70000 1.44062 -0.04975 -0.00453
76.80000 1.48523 -0.02293 -0.01962
76.90000 1.46297 0.01457 -0.04086
77.00000 1.43865 0.02454 0.02566
77.10000 1.47121 0.30377 0.04454
77.20000 1.43896 0.38537 -0.03693
77.30000 1.41895 0.03097 -0.00104
77.40000 1.50390 -0.15126 -0.02527
77.50000 1.46363 -0.12237 0.05144
77.60000 1.39553 -0.04593 -0.01281
77.70000 1.49034 -0.01166 -0.04343
77.80000 1.50241 -0.07353 0.00266
77.90000 1.47139 -0.11929 -0.01472
78.00000 1.45397 -0.11008 -0.01303
78.10000 1.50809 -0.16036 0.01167
78.20000 1.49483 -0.22583 -0.01061
78.30000 1.44393 -0.16452 -0.00045
78.40000 1.46406 0.19479 -0.02969
78.50000 1.49733 0.23988 -0.01610
78.60000 1.44687 0.25276 0.09264
78.70000 1.44711 0.12040 0.00356
78.80000 1.47135 -0.24355 -0.04412
78.90000 1.43352 -0.27017 0.01958
79.00000 1.54924 -0.20334 0.06645
79.10000 1.50833 -0.22970 -0.04948
79.20000 1.42878 -0.24436 0.02402
79.30000 1.50611 -0.10169 0.04919
79.40000 1.53495 0.19008 -0.03112
79.50000 1.41489 0.26427 -0.02415
79.60000 1.37829 0.10338 -0.03105
79.70000 1.51586 -0.01519 0.00135
79.80000 1.48294 -0.19063 -0.01247
79.90000 1.43118 -0.09568 -0.03808
80.00000 1.46093 0.02373 -0.01643
80.10000 1.44791 0.05634 -0.02607
80.20000 1.53928 0.01653 -0.00841
80.30000 1.45736 0.03731 -0.05483
80.40000 1.41582 -0.12964 0.05019
80.50000 1.43349 -0.32457 0.02908
80.60000 1.49083 -0.18223 -0.04770
80.70000 1.43732 -0.00894 -0.00165
80.80000 1.49407 0.14582 0.02275
80.90000 1.48960 -0.06252 -0.02679
81.00000 1.42895 -0.05759 0.06572
81.10000 1.47024 -0.22483 -0.02985
81.20000 1.47409 -0.13903 -0.00011
81.30000 1.43764 -0.14132 0.00121
81.40000 1.46971 -0.29818 -0.00467
81.50000 1.41920 -0.33755 0.01646
81.60000 1.44862 -0.16859 0.03787
81.70000 1.49610 -0.00072 -0.02495
81.80000 1.39350 0.03142 0.01998
81.90000 1.39380 0.31167 0.02968
82.00000 1.51893 0.42885 -0.03956
82.10000 1.47675 0.34405 -0.03287
82.20000 1.44850 0.15754 0.00401
82.30000 1.43539 0.05293 0.02875
82.40000 1.51428 0.05405 -0.00707
82.50000 1.51349 -0.02328 -0.03984
82.60000 1.45255 -0.14332 0.01869
82.70000 1.43448 -0.13176 0.05211
82.80000 1.42028 -0.02212 0.00137
82.90000 1.44893 0.12956 0.00328
83.00000 1.45960 0.10515 0.03471
83.10000 1.50266 -0.01590 -0.10059
83.20000 1.49371 -0.03093 0.00724
83.30000 1.46909 0.10564 -0.00010
83.40000 1.45381 0.02333 0.01446
83.50000 1.46694 -0.16857 -0.03034
83.60000 1.46442 -0.25712 0.01942
83.70000 1.43004 -0.24684 0.05326
83.80000 1.47552 -0.03857 -0.04655
83.90000 1.49084 0.07195 0.01626
84.00000 1.45900 0.09612 0.05828
84.10000 1.48675 0.01577 -0.07317
84.20000 1.48110 0.07706 0.05478
84.30000 1.46116 -0.01881 0.02232
84.40000 1.45536 0.09948 -0.04762
84.50000 1.41731 -0.01648 0.02791
84.60000 1.47907 -0.02568 -0.03778
84.70000 1.43577 0.12844 -0.03210
84.80000 1.51272 -0.01711 0.06932
84.90000 1.51606 -0.15918 -0.02036
85.00000 1.44964 -0.34379 -0.03637
85.10000 1.39172 -0.17108 0.01674
85.20000 1.46475 -0.05902 0.00633
85.30000 1.55023 -0.15543 -0.02352
85.40000 1.40458 -0.00918 -0.01656
85.50000 1.45545 0.04571 0.03266
85.60000 1.47512 0.03226 0.02024
85.70000 1.49610 -0.15770 -0.05345
85.80000 1.46140 -0.05178 0.02892
85.90000 1.44672 -0.01382 0.06298
86.00000 1.45485 -0.25244 -0.04179
86.10000 1.41243 -0.33347 -0.02481
86.20000 1.50384 -0.25119 0.03685
86.30000 1.48180 0.04809 -0.04474
86.40000 1.43326 0.13649 0.04284
86.50000 1.47066 0.17360 -0.01070
86.60000 1.46161 0.07506 0.05794
86.70000 1.46190 -0.02357 0.00032
86.80000 1.46719 -0.01673 0.03286
86.90000 1.48844 -0.11895 0.00762
87.00000 1.45196 -0.06836 -0.07596
87.10000 1.42247 0.23018 0.07027
87.20000 1.49384 0.23688 -0.00035
87.30000 1.42039 0.00957 -0.02805
87.40000 1.44310 -0.12643 -0.02292
87.50000 1.49099 -0.21492 -0.01852
87.60000 1.49100 -0.29159 -0.00013
87.70000 1.41477 0.01219 -0.01931
87.80000 1.43244 0.16748 0.01011
87.90000 1.50598 0.22736 -0.00646
88.00000 1.45408 -0.02826 0.05110
88.10000 1.49924 -0.00407 -0.00115
88.20000 1.42936 -0.03197 -0.00427
88.30000 1.47257 -0.13338 0.06014
88.40000 1.46172 -0.00161 0.01025
88.50000 1.46628 0.29135 -0.08808
88.60000 1.45198 0.25470 0.05903
88.70000 1.47536 0.20529 0.02415
88.80000 1.44355 0.16610 -0.03685
88.90000 1.46555 -0.02327 0.01152
89.00000 1.42063 -0.02379 -0.01278
89.10000 1.49782 0.00502 -0.04394
89.20000 1.46460 -0.06127 0.04823
89.30000 1.46875 0.14990 -0.00812
89.40000 1.47983 0.28552 0.03251
89.50000 1.45055 0.32256 -0.04380
89.60000 1.52185 0.34114 -0.00881
89.70000 1.41397 0.28563 0.02890
89.80000 1.45529 0.34630 -0.00350
89.90000 1.47583 0.33920 -0.05938
90.00000 1.44112 0.05549 0.00917
90.10000 1.48259 -0.09612 0.01211
90.20000 1.45580 -0.16598 0.02231
90.30000 1.40263 -0.17476 -0.06626
90.40000 1.52817 -0.07349 0.02383
90.50000 1.51376 -0.01203 -0.00554
90.60000 1.45563 0.09135 -0.01782
90.70000 1.42745 0.11650 0.04215
90.80000 1.49776 0.07225 0.02269
90.90000 1.44129 -0.00347 -0.01318
91.00000 1.50587 -0.08152 -0.06859
91.10000 1.46458 -0.12164 0.00806
91.20000 1.42861 -0.10731 0.01848
91.30000 1.50328 -0.10198 0.04973
91.40000 1.49916 -0.12918 -0.06615
91.50000 1.43964 0.06232 0.00373
91.60000 1.45953 0.31146 0.03032
91.70000 1.46814 0.39743 -0.00634
91.80000 1.42438 0.27173 0.02521
91.90000 1.54788 -0.05551 0.01436
92.00000 1.50357 -0.11280 -0.03485
92.10000 1.45391 -0.01204 -0.03976
92.20000 1.43605 0.04459 0.02207
92.30000 1.46930 -0.00303 0.00570
92.40000 1.49548 -0.14638 0.01545
92.50000 1.43223 -0.00297 0.04053
92.60000 1.45094 0.34280 -0.02077
92.70000 1.48270 0.24536 -0.00731
92.80000 1.47370 0.29840 0.03719
92.90000 1.50765 0.19027 -0.04051
93.00000 1.46338 0.04746 -0.03498
93.10000 1.45452 0.00841 0.00245
93.20000 1.43536 0.18906 -0.03742
93.30000 1.45289 0.22068 -0.00964
93.40000 1.50185 -0.10816 0.02235
93.50000 1.46498 -0.39456 0.04402
93.60000 1.46492 -0.34644 0.01312
93.70000 1.46462 -0.17895 -0.01991
93.80000 1.40329 0.00859 0.00543
93.90000 1.51464 0.15820 0.00987
94.00000 1.52741 0.22592 0.00506
94.10000 1.44697 0.06480 0.04011
94.20000 1.41017 -0.03664 -0.06385
94.30000 1.46470 0.07805 -0.02134
94.40000 1.52230 0.11771 0.06189
94.50000 1.45257 0.28007 0.00245
94.60000 1.43034 0.13028 0.02835
94.70000 1.58091 0.08645 0.02570
94.80000 1.45679 0.01943 -0.02303
94.90000 1.43118 -0.12019 -0.03174
95.00000 1.48762 -0.19687 -0.01522
95.10000 1.48077 -0.07926 0.04468
95.20000 1.45192 -0.02303 -0.02470
95.30000 1.42566 -0.08018 -0.02796
95.40000 1.48717 -0.23654 0.01896
95.50000 1.49959 -0.15325 0.05795
95.60000 1.38227 -0.05301 -0.04764
95.70000 1.43197 -0.07357 -0.06322
95.80000 1.47644 -0.14227 0.02834
95.90000 1.50958 -0.28924 -0.02412
96.00000 1.50768 -0.14693 -0.00387
96.10000 1.41932 -0.10163 -0.01321
96.20000 1.38722 -0.00316 0.01030
96.30000 1.43314 0.05142 0.00963
96.40000 1.52737 -0.15680 0.02908
96.50000 1.47605 -0.03505 0.02372
96.60000 1.48050 -0.06887 0.02866
96.70000 1.49008 -0.13021 0.01301
96.80000 1.47786 -0.14884 -0.02412
96.90000 1.44743 -0.15684 -0.01607
97.00000 1.50657 -0.02080 0.05906
97.10000 1.46041 0.13419 0.03408
97.20000 1.42379 0.21293 -0.08387
97.30000 1.47398 0.16931 0.01282
97.40000 1.46351 0.18272 0.08423
97.50000 1.46567 0.25811 0.01736
97.60000 1.39884 0.01706 -0.02722
97.70000 1.52886 -0.16321 0.01827
97.80000 1.47758 -0.13568 -0.02564
97.90000 1.44130 -0.07204 -0.04384
98.00000 1.42705 0.12329 -0.00030
98.10000 1.51609 -0.01076 -0.07698
98.20000 1.50940 -0.01478 0.03763
98.30000 1.47143 -0.03551 0.02666
98.40000 1.44667 -0.07485 -0.02131
98.50000 1.42176 0.08630 -0.02732
98.60000 1.42310 -0.05304 0.02943
98.70000 1.45417 -0.03668 0.03949
98.80000 1.53587 -0.02966 0.00392
98.90000 1.42757 -0.05271 -0.05743
99.00000 1.44090 0.04088 0.01714
99.10000 1.52721 0.09262 0.03762
99.20000 1.42347 0.05506 -0.06683
99.30000 1.44417 0.07614 -0.01004
99.40000 1.46146 0.12689 0.01888
99.50000 1.53878 0.18993 -0.01428
99.60000 1.43709 -0.01692 -0.02962
99.70000 1.44036 -0.25197 0.02174
99.80000 1.47043 -0.13472 0.00979
99.90000 1.44354 0.20706 -0.02687
100.00000 1.45098 0.29554 -0.01358
100.10000 1.49973 0.14393 0.00059
100.20000 1.50028 -0.08385 0.03182
100.30000 1.45758 -0.12569 -0.01470
100.40000 1.49234 -0.11438 0.01218
100.50000 1.52445 0.02373 0.04412
100.60000 1.47863 -0.15262 -0.06891
100.70000 1.41025 -0.19875 -0.01732
100.80000 1.46071 -0.30322 0.03907
100.90000 1.45555 -0.37525 0.03401
101.00000 1.50557 -0.25551 -0.03687
101.10000 1.49202 -0.13812 -0.02229
101.20000 1.42349 -0.01469 0.06793
101.30000 1.48463 0.17068 -0.01887
101.40000 1.50052 0.01862 -0.07834
101.50000 1.44445 -0.12038 0.07198
101.60000 1.45412 -0.12577 0.01249
101.70000 1.44772 -0.00905 0.00872
101.80000 1.38332 0.04390 0.00535
101.90000 1.49717 0.05724 -0.02204
102.00000 1.47526 0.11087 -0.05402
102.10000 1.42830 0.07019 0.01318
102.20000 1.48583 -0.17608 0.03209
102.30000 1.47195 -0.25275 -0.02115
102.40000 1.46260 -0.14237 -0.02921
102.50000 1.44726 -0.04133 -0.00024
102.60000 1.50574 -0.04248 -0.00552
102.70000 1.38135 -0.18322 0.04670
102.80000 1.50510 -0.15143 0.02070
102.90000 1.47196 -0.07108 -0.05863
103.00000 1.43720 -0.06481 -0.00302
103.10000 1.47785 -0.12012 0.03372
103.20000 1.44678 -0.08467 -0.01327
103.30000 1.46515 0.09370 -0.04861
103.40000 1.48781 0.27070 -0.02519
103.50000 1.48370 0.24975 -0.03364
103.60000 1.48213 0.19287 0.00319
103.70000 1.46894 -0.01864 0.05114
103.80000 1.52284 -0.02651 0.01866
103.90000 1.45137 0.05034 -0.04504
104.00000 1.43057 -0.07260 0.05933
104.10000 1.46331 -0.16701 0.00132
104.20000 1.44452 -0.16929 0.00054
104.30000 1.51245 0.05376 -0.00063
104.40000 1.47784 0.08575 0.04969
104.50000 1.47411 -0.16148 -0.02539
104.60000 1.39320 -0.24057 0.00431
104.70000 1.42064 -0.27552 0.03334
104.80000 1.53030 -0.06990 0.04944
104.90000 1.44474 0.12491 -0.08389
105.00000 1.48092 0.10028 0.02689
105.10000 1.47020 -0.11397 -0.04046
105.20000 1.46631 -0.20994 -0.12057
105.30000 1.47358 -0.20198 0.04929
105.40000 1.49489 -0.03722 0.10486
105.50000 1.44044 0.14628 -0.05941
105.60000 1.43210 0.25064 -0.02972
105.70000 1.46825 0.22872 0.11203
105.80000 1.45714 -0.03404 0.03349
105.90000 1.45755 -0.32739 -0.04425
106.00000 1.49871 -0.44224 -0.00691
106.10000 1.45048 -0.05788 0.00816
106.20000 1.44018 0.08714 -0.01373
106.30000 1.50353 0.13777 0.03460
106.40000 1.42816 0.27128 -0.01267
106.50000 1.45237 0.29613 0.02203
106.60000 1.49550 0.12865 -0.00358
106.70000 1.41943 -0.00654 -0.01563
106.80000 1.48728 -0.16157 0.03283
106.90000 1.55356 0.04672 -0.05439
107.00000 1.48551 0.11614 0.04838
107.10000 1.38408 0.14445 0.08303
107.20000 1.41072 0.11977 0.02345
107.30000 1.48652 0.20248 -0.04894
107.40000 1.49278 0.04428 0.02320
107.50000 1.44125 0.03329 0.05196
107.60000 1.49704 0.11213 -0.02258
107.70000 1.43739 -0.05783 -0.03918
107.80000 1.49010 -0.09162 0.01388
107.90000 1.41339 -0.30133 -0.03176
108.00000 1.41881 -0.34161 0.00337
108.10000 1.49278 -0.24852 0.00317
108.20000 1.48505 -0.09681 0.03069
108.30000 1.46381 -0.10783 0.00195
108.40000 1.46836 -0.07672 0.07908
108.50000 1.47705 -0.02296 -0.06030
108.60000 1.45574 -0.04059 -0.01961
108.70000 1.46582 -0.11718 0.02061
108.80000 1.48595 -0.08904 0.02015
108.90000 1.41999 -0.02297 0.01277
109.00000 1.55902 -0.03165 -0.02142
109.10000 1.46760 0.09677 -0.00174
109.20000 1.47190 0.05841 -0.04089
109.30000 1.41697 0.06896 0.00713
109.40000 1.47162 0.01404 0.00094
109.50000 1.46782 0.00373 -0.03694
109.60000 1.45797 -0.12764 -0.04000
109.70000 1.45421 -0.16184 0.09165
109.80000 1.49592 -0.16768 0.02135
109.90000 1.43212 -0.00802 0.03750
110.00000 1.44990 0.09218 -0.02969
110.10000 1.44149 0.07615 -0.02400
110.20000 1.40602 0.01086 -0.01597
110.30000 1.52391 -0.01756 -0.03045
110.40000 1.48980 -0.09244 0.03136
110.50000 1.48614 0.00991 -0.04142
110.60000 1.49028 0.13202 0.04518
110.70000 1.46866 0.22321 -0.07731
110.80000 1.47733 0.27557 -0.04326
110.90000 1.47651 0.19346 -0.00000
111.00000 1.44824 0.04512 0.06540
111.10000 1.42436 -0.09762 0.00010
111.20000 1.48258 -0.07288 0.00245
111.30000 1.43156 -0.02889 0.01750
111.40000 1.44862 -0.07016 0.03140
111.50000 1.50825 0.04737 0.06627
111.60000 1.43584 0.23066 -0.06402
111.70000 1.41969 0.12262 -0.01049
111.80000 1.50048 0.04156 0.01752
111.90000 1.51190 -0.05574 0.03020
112.00000 1.45264 -0.12280 -0.02404
112.10000 1.43807 -0.08150 0.02848
112.20000 1.50302 -0.05702 -0.02137
112.30000 1.56176 -0.04904 -0.06209
112.40000 1.44505 -0.06424 0.02917
112.50000 1.44150 -0.17461 -0.00381
112.60000 1.48059 -0.15383 -0.01340
112.70000 1.47962 -0.10188 0.01946
112.80000 1.45889 -0.21911 -0.00864
112.90000 1.40340 -0.06578 -0.08278
113.00000 1.46552 0.04045 -0.00749
113.10000 1.46303 0.01602 0.01618
113.20000 1.51371 -0.08098 -0.03145
113.30000 1.44676 -0.15898 -0.05076
113.40000 1.39613 -0.09079 0.07491
113.50000 1.48276 0.10867 0.03789
113.60000 1.50614 0.17622 -0.03591
113.70000 1.38159 0.15275 -0.05590
113.80000 1.48229 -0.05533 0.04701
113.90000 1.47565 -0.09647 0.04533
114.00000 1.39103 -0.12677 -0.01073
114.10000 1.49209 -0.05592 -0.07285
114.20000 1.48118 -0.00244 0.00824
114.30000 1.47459 0.03436 0.08665
114.40000 1.43902 0.10344 -0.05023
114.50000 1.50681 0.25178 0.03680
114.60000 1.48019 0.17610 0.00088
114.70000 1.41350 0.05041 -0.02095
114.80000 1.43660 -0.17174 -0.08319
114.90000 1.51054 -0.35158 0.05486
115.00000 1.44341 -0.31652 0.05352
115.10000 1.43042 -0.13929 0.02470
115.20000 1.47177 -0.07712 -0.01279
115.30000 1.47884 -0.29998 -0.02689
115.40000 1.45921 -0.35318 -0.02957
115.50000 1.44253 -0.22631 0.00041
115.60000 1.42376 -0.13152 0.00262
115.70000 1.54376 -0.22727 -0.06264
115.80000 1.46286 -0.29577 0.02216
115.90000 1.41112 -0.18091 0.00637
116.00000 1.51563 0.29769 0.01351
116.10000 1.49016 0.18878 -0.03379
116.20000 1.39454 -0.02821 -0.03949
116.30000 1.48154 -0.12857 -0.00030
116.40000 1.45938 -0.17924 0.04384
116.50000 1.44542 -0.15630 -0.04855
116.60000 1.41770 -0.06530 0.00182
116.70000 1.49281 0.12314 -0.01992
116.80000 1.44240 0.21688 -0.02771
116.90000 1.48183 0.38067 0.03689
117.00000 1.44976 0.20338 -0.02437
117.10000 1.42428 0.05068 0.01294
117.20000 1.45009 0.05632 0.03770
117.30000 1.48728 -0.01502 -0.04300
117.40000 1.45102 -0.26521 -0.07785
117.50000 1.52698 -0.06970 0.05472
117.60000 1.44322 0.07130 -0.01599
117.70000 1.45095 -0.15168 -0.07123
117.80000 1.39483 -0.22289 0.04414
117.90000 1.47728 -0.02345 0.04248
118.00000 1.41826 0.21495 -0.08538
118.10000 1.45052 0.15145 -0.00752
118.20000 1.45646 0.08288 -0.00488
118.30000 1.49626 0.04382 -0.01126
118.40000 1.47153 0.02796 -0.02146
118.50000 1.43256 0.05273 0.02729
118.60000 1.47163 0.01483 0.01440
118.70000 1.49823 0.06789 -0.02244
118.80000 1.48474 0.00335 0.00598
118.90000 1.50126 -0.13171 -0.02515
119.00000 1.43658 -0.13563 0.09122
119.10000 1.45223 0.04615 -0.00715
119.20000 1.45478 0.08420 -0.01410
119.30000 1.55489 0.25054 -0.01381
119.40000 1.45634 0.33364 0.05140
119.50000 1.37723 0.17874 -0.04001
119.60000 1.49203 -0.20157 -0.01505
119.70000 1.46903 -0.19803 -0.00429
119.80000 1.52186 -0.07498 0.02872
119.90000 1.52022 -0.04287 0.00482
120.00000 1.43019 0.10958 0.04840
120.10000 1.45578 0.00120 -0.03236
120.20000 1.45170 0.13497 -0.01716
120.30000 1.46880 0.06598 -0.03904
120.40000 1.44243 -0.01453 0.01174
120.50000 1.47569 -0.07521 0.04696
120.60000 1.46035 -0.12740 0.02984
120.70000 1.48771 -0.24453 -0.02018
120.80000 1.41411 -0.19816 -0.03568
120.90000 1.46124 -0.01328 0.03735
121.00000 1.46423 0.13300 -0.02536
121.10000 1.47379 0.16833 -0.02863
121.20000 1.43055 0.03058 -0.06717
121.30000 1.44906 -0.06992 0.08081
121.40000 1.48673 0.07401 -0.02083
121.50000 1.52245 0.39824 -0.04963
121.60000 1.42099 0.36314 -0.02969
121.70000 1.45423 0.22493 0.02683
121.80000 1.48549 0.13676 -0.01002
121.90000 1.50782 0.24328 -0.01856
122.00000 1.42934 0.23698 0.04265
122.10000 1.50351 0.14378 0.00875
122.20000 1.42790 -0.03276 0.03190
122.30000 1.41971 -0.18228 -0.00201
122.40000 1.47472 -0.16138 -0.03200
122.50000 1.47516 -0.11406 0.00332
122.60000 1.51042 -0.27013 -0.00399
122.70000 1.40356 -0.22677 0.04742
122.80000 1.42437 -0.12518 -0.04606
122.90000 1.47594 0.05703 -0.00358
123.00000 1.46434 0.15947 0.00503
123.10000 1.50894 0.01196 0.05029
123.20000 1.49032 0.02936 -0.03146
123.30000 1.40158 0.13069 -0.00097
123.40000 1.41218 0.17456 -0.03582
123.50000 1.52335 0.08032 -0.02054
123.60000 1.48782 0.16161 -0.01511
123.70000 1.41356 0.20926 0.08978
123.80000 1.42227 0.12249 -0.01355
123.90000 1.50572 0.08371 -0.03043
124.00000 1.52434 -0.00831 -0.01367
124.10000 1.37844 -0.08664 0.04821
124.20000 1.50128 -0.06418 -0.00314
124.30000 1.47099 -0.06900 0.00391
124.40000 1.50048 -0.21849 -0.03567
124.50000 1.43960 -0.27292 -0.02128
124.60000 1.46186 -0.26389 -0.01770
124.70000 1.48267 -0.21294 0.04582
124.80000 1.44064 -0.22504 0.02461
124.90000 1.46128 -0.08699 -0.00726
125.00000 1.54484 -0.03019 -0.03216
125.10000 1.44721 0.05259 0.02844
125.20000 1.41524 0.09887 0.02630
125.30000 1.43254 0.04483 0.00769
125.40000 1.43497 -0.14645 -0.01900
125.50000 1.46838 -0.19574 0.01800
125.60000 1.46852 0.05185 -0.02511
125.70000 1.51871 0.23905 -0.03027
125.80000 1.43157 0.25271 0.04809
125.90000 1.48022 0.03341 0.00914
126.00000 1.45695 -0.15745 -0.00520
126.10000 1.44155 -0.18908 -0.02250
126.20000 1.44150 -0.05148 -0.00317
126.30000 1.49633 0.13179 0.03730
126.40000 1.54458 0.07144 -0.00463
126.50000 1.43944 0.04929 0.03898
126.60000 1.49561 0.01295 -0.05110
126.70000 1.46388 0.02823 -0.03897
126.80000 1.49561 0.08795 -0.01039
126.90000 1.51061 -0.14843 0.03773
127.00000 1.50012 -0.24400 -0.06327
127.10000 1.44767 -0.27121 -0.02834
127.20000 1.46881 -0.09866 0.04141
127.30000 1.48386 -0.01575 0.04879
127.40000 1.45208 0.15115 -0.03897
127.50000 1.46865 0.06562 -0.03754
127.60000 1.48160 0.06857 0.05647
127.70000 1.45227 0.09959 -0.03443
127.80000 1.46040 -0.16220 -0.07002
127.90000 1.53706 -0.22198 0.01781
128.00000 1.45068 -0.09955 -0.02135
128.10000 1.45933 0.07470 -0.01784
128.20000 1.49349 0.06176 0.02964
128.30000 1.46442 0.09356 -0.03781
128.40000 1.43152 0.11612 0.02082
128.50000 1.37013 0.08536 -0.02068
128.60000 1.43013 0.05811 -0.03533
128.70000 1.51471 -0.08072 0.05746
128.80000 1.55112 -0.14904 -0.02927
128.90000 1.44299 -0.11012 -0.00207
129.00000 1.40260 0.04598 0.03204
129.10000 1.47434 0.06089 -0.01832
129.20000 1.51397 0.05128 -0.05868
129.30000 1.45304 -0.15463 0.03275
129.40000 1.39742 -0.05742 0.02406
129.50000 1.47025 0.10074 0.02934
129.60000 1.46311 0.19364 0.02336
129.70000 1.46261 0.27588 -0.06753
129.80000 1.45031 0.08708 0.01134
129.90000 1.45332 0.13049 0.10849
130.00000 1.44666 0.08447 -0.04975
130.10000 1.46164 -0.03444 0.00874
130.20000 1.46895 -0.12890 0.01232
130.30000 1.46101 -0.13142 -0.03222
130.40000 1.44197 -0.02211 0.02671
130.50000 1.45452 -0.08759 -0.00246
130.60000 1.39045 -0.10987 0.02763
130.70000 1.50063 0.08675 0.00690
130.80000 1.47130 0.20327 -0.02346
130.90000 1.47997 0.10061 -0.00024
131.00000 1.48207 -0.18202 0.00855
131.10000 1.51156 -0.05749 -0.05866
131.20000 1.48443 0.02089 0.05656
131.30000 1.46705 0.04534 0.02904
131.40000 1.41397 0.08852 -0.05936
131.50000 1.49460 0.07537 -0.02458
131.60000 1.49511 0.06226 0.08619
131.70000 1.42453 0.15294 -0.00369
131.80000 1.42540 -0.02400 -0.05175
131.90000 1.49250 -0.17503 0.01192
132.00000 1.44819 -0.02318 0.00934
132.10000 1.43353 0.10400 -0.03695
132.20000 1.50467 -0.12596 0.07780
132.30000 1.50415 -0.06690 -0.03782
132.40000 1.45745 -0.07103 -0.04358
132.50000 1.47088 -0.01207 0.00964
132.60000 1.48486 0.17439 0.02358
132.70000 1.43603 0.21373 0.02526
132.80000 1.46300 0.04706 -0.04455
132.90000 1.46168 0.02314 -0.01817
133.00000 1.44754 -0.10827 0.06967
133.10000 1.45145 -0.28496 -0.01166
133.20000 1.46070 -0.14530 -0.00869
133.30000 1.48110 0.09031 0.00985
133.40000 1.45496 0.30799 0.01039
133.50000 1.49365 0.26038 0.00266
133.60000 1.48653 0.20950 -0.05612
133.70000 1.48783 0.13545 -0.00389
133.80000 1.43502 0.14625 0.04340
133.90000 1.53178 0.00526 0.01104
134.00000 1.40593 -0.17788 -0.01095
134.10000 1.41953 -0.22459 -0.02675
134.20000 1.50885 -0.14686 0.00275
134.30000 1.47893 -0.18923 -0.05141
134.40000 1.41780 -0.01662 -0.00005
134.50000 1.46361 0.20280 0.01210
134.60000 1.52953 -0.00612 -0.01091
134.70000 1.42368 0.14084 -0.04103
134.80000 1.51656 0.29580 0.02387
134.90000 1.48321 0.01531 -0.01893
135.00000 1.42764 -0.13027 -0.01418
135.10000 1.43479 -0.05506 0.11345
135.20000 1.48944 0.12885 -0.01507
135.30000 1.42744 0.21229 -0.07972
135.40000 1.48750 0.16751 0.00709
135.50000 1.51869 0.02469 -0.04446
135.60000 1.48462 0.02245 -0.06625
135.70000 1.42198 0.28635 -0.02551
135.80000 1.45272 0.32691 0.12059
135.90000 1.45809 0.21968 -0.05302
136.00000 1.39215 0.09933 -0.02571
136.10000 1.53224 0.12203 0.01785
136.20000 1.44954 -0.05225 -0.06136
136.30000 1.45050 -0.13547 -0.02655
136.40000 1.48262 -0.11765 0.02208
136.50000 1.47467 0.00239 -0.04629
136.60000 1.45611 0.15609 -0.01237
136.70000 1.47829 0.07137 0.00037
136.80000 1.39072 -0.06890 -0.02933
136.90000 1.52484 -0.01680 0.00527
137.00000 1.47540 0.12191 -0.00548
137.10000 1.51188 0.03026 0.03460
137.20000 1.43573 -0.09931 -0.00221
137.30000 1.41606 -0.07055 -0.08446
137.40000 1.53235 -0.16280 0.00131
137.50000 1.48183 -0.15738 0.00748
137.60000 1.44053 0.13554 -0.02587
137.70000 1.56009 0.29847 0.03947
137.80000 1.42850 0.30437 0.09062
137.90000 1.41494 0.12436 -0.06460
138.00000 1.49201 0.09490 0.02801
138.10000 1.53463 0.13547 -0.03701
138.20000 1.41515 0.10653 0.01754
138.30000 1.38464 -0.04381 0.01173
138.40000 1.49903 -0.28966 0.04226
138.50000 1.49951 -0.40770 -0.02031
138.60000 1.43510 -0.39471 -0.01861
138.70000 1.48413 -0.07444 0.04372
138.80000 1.41671 0.15889 -0.02512
138.90000 1.48427 0.20016 -0.00684
139.00000 1.49173 0.07043 0.06271
139.10000 1.50499 -0.05810 -0.03955
139.20000 1.46946 -0.11227 -0.03840
139.30000 1.41305 -0.11961 0.04479
139.40000 1.48186 -0.15914 -0.00868
139.50000 1.51884 0.12708 -0.04441
139.60000 1.45372 0.31123 -0.03422
139.70000 1.46923 0.20206 0.01488
139.80000 1.44407 0.06255 -0.02277
139.90000 1.42054 0.02460 -0.01676
140.00000 1.46814 -0.01079 0.01429
140.10000 1.47333 -0.05150 0.07741
140.20000 1.48551 -0.18874 -0.00201
140.30000 1.42523 -0.10798 -0.02466
140.40000 1.42704 0.09780 -0.00760
140.50000 1.52074 0.15404 0.03932
140.60000 1.45770 0.22202 -0.04796
140.70000 1.47231 0.09127 -0.00594
140.80000 1.52489 -0.07308 -0.00608
140.90000 1.42312 -0.10060 -0.01669
141.00000 1.45008 -0.12577 0.07733
141.10000 1.51581 0.09038 -0.08881
141.20000 1.51247 0.12752 0.01364
141.30000 1.41795 -0.09921 0.09108
141.40000 1.49641 -0.49408 -0.05037
141.50000 1.52567 -0.40104 -0.04099
141.60000 1.46903 -0.18624 0.04497
141.70000 1.44122 -0.20979 0.02624
141.80000 1.47736 -0.14275 -0.02086
141.90000 1.50180 0.02348 -0.02735
142.00000 1.45578 0.15952 0.02307
142.10000 1.43687 0.25671 0.02419
142.20000 1.50846 0.24264 -0.06251
142.30000 1.49947 0.13820 0.00011
142.40000 1.45821 0.06813 0.06478
142.50000 1.50406 0.13410 0.00221
142.60000 1.45909 0.14851 -0.08419
142.70000 1.49655 0.05125 0.03629
142.80000 1.46904 -0.07443 0.04060
142.90000 1.41884 -0.10885 -0.03640
143.00000 1.46470 -0.05030 -0.01060
143.10000 1.46144 0.06447 0.04382
143.20000 1.47116 0.30504 0.04437
143.30000 1.49126 0.34056 0.01217
143.40000 1.42533 0.08692 -0.04985
143.50000 1.46974 0.08672 0.02577
143.60000 1.40974 0.20136 0.05376
143.70000 1.49739 0.08484 0.02611
143.80000 1.42149 -0.07373 0.00925
143.90000 1.48816 -0.22115 0.04865
144.00000 1.47509 -0.17604 -0.10771
144.10000 1.43483 -0.11109 0.00712
144.20000 1.50305 0.05215 0.04320
144.30000 1.54215 0.13322 -0.04842
144.40000 1.47940 0.03809 0.06215
144.50000 1.47254 -0.08949 0.02821
144.60000 1.48997 -0.12297 -0.06672
144.70000 1.44060 -0.32247 0.00395
144.80000 1.45343 -0.26905 0.01479
144.90000 1.41434 -0.02427 -0.01535
145.00000 1.51074 0.07254 -0.05775
145.10000 1.41831 -0.02723 0.04974
145.20000 1.49806 0.10811 0.00743
145.30000 1.55130 0.39690 -0.00349
145.40000 1.43201 0.35104 -0.05391
145.50000 1.43476 0.05704 -0.06743
145.60000 1.47108 -0.07786 0.01818
145.70000 1.46047 -0.04454 0.08209
145.80000 1.49849 -0.04373 -0.01323
145.90000 1.49952 0.06840 -0.08173
146.00000 1.44686 0.10726 0.07857
146.10000 1.44930 0.25636 -0.02798
146.20000 1.42095 0.41688 0.01848
146.30000 1.52457 0.29741 0.04080
146.40000 1.45144 0.05357 -0.03604
146.50000 1.45646 -0.00120 0.00841
146.60000 1.46055 -0.02968 0.02318
146.70000 1.45341 -0.14213 0.02167
146.80000 1.52710 -0.11669 -0.00250
146.90000 1.45002 -0.02557 -0.00468
147.00000 1.42776 -0.04049 0.07082
147.10000 1.51223 -0.18704 -0.06541
147.20000 1.50980 -0.14948 -0.02208
147.30000 1.48429 -0.09498 0.02361
147.40000 1.47560 -0.00606 0.03317
147.50000 1.47483 -0.05743 -0.02237
147.60000 1.47803 -0.09204 0.02977
147.70000 1.41796 -0.08359 0.02677
147.80000 1.42460 -0.08713 -0.04263
147.90000 1.54438 -0.17945 -0.00671
148.00000 1.43237 -0.28232 0.02817
148.10000 1.43867 -0.05683 -0.03117
148.20000 1.47434 0.15916 0.01627
148.30000 1.45304 0.26218 0.00137
148.40000 1.49905 0.26109 -0.02818
148.50000 1.46254 0.19654 -0.03824
148.60000 1.45479 0.15255 0.02718
148.70000 1.50608 -0.02863 0.02102
148.80000 1.48691 -0.08317 -0.00184
148.90000 1.47245 0.04726 0.01034
149.00000 1.46973 0.07039 0.02066
149.10000 1.44801 -0.17660 0.02151
149.20000 1.44930 -0.27680 -0.01834
149.30000 1.53933 -0.05698 0.02395
149.40000 1.44150 0.04173 0.03248
149.50000 1.42485 0.05944 -0.01790
149.60000 1.43373 0.17773 -0.03400
149.70000 1.45224 0.12616 0.06757
149.80000 1.48299 -0.11161 -0.05875
149.90000 1.41960 -0.07924 -0.03116
150.00000 1.46896 -0.05057 -0.00499
150.10000 1.48886 -0.06691 -0.02353
150.20000 1.47476 -0.06821 0.00823
150.30000 1.46734 0.05773 0.01923
150.40000 1.50908 0.17915 -0.00503
150.50000 1.42866 0.20005 -0.04276
150.60000 1.45361 0.02356 0.03816
150.70000 1.46718 -0.02199 0.00650
150.80000 1.51461 -0.16408 0.02473
150.90000 1.48289 -0.09619 0.02550
151.00000 1.44991 0.04307 -0.02153
151.10000 1.44671 0.16264 -0.01518
151.20000 1.49194 0.18497 -0.03503
151.30000 1.49833 0.10101 0.04742
151.40000 1.33255 -0.03005 0.00426
151.50000 1.45510 -0.03043 -0.07878
151.60000 1.46797 -0.17058 0.02660
151.70000 1.43404 -0.19008 0.01181
151.80000 1.44516 0.00210 -0.02636
151.90000 1.45077 0.05319 0.01242
152.00000 1.47693 0.23113 0.02078
152.10000 1.44082 0.45278 0.00033
152.20000 1.51649 0.28257 -0.00998
152.30000 1.47816 0.09973 0.00397
152.40000 1.39240 -0.02531 -0.00254
152.50000 1.45585 0.08109 -0.01948
152.60000 1.48179 0.17217 0.03598
152.70000 1.48451 0.09932 -0.02662
152.80000 1.43897 0.05103 -0.05354
152.90000 1.42957 0.03860 -0.00378
153.00000 1.48940 0.10422 0.02058
153.10000 1.49044 -0.10423 0.05752
153.20000 1.44694 -0.13910 0.03269
153.30000 1.46367 0.04743 -0.01526
153.40000 1.43716 0.23702 -0.04871
153.50000 1.52098 0.21690 0.01986
153.60000 1.48320 0.12675 -0.02937
153.70000 1.47748 -0.03587 0.06105
153.80000 1.39853 -0.08375 -0.02129
153.90000 1.47047 -0.13510 0.00582
154.00000 1.48399 0.08960 0.00466
154.10000 1.44116 0.31647 -0.01183
154.20000 1.43309 0.45520 0.04471
154.30000 1.53242 0.29751 -0.01949
154.40000 1.55225 -0.06562 -0.04210
154.50000 1.53826 -0.30347 -0.01016
154.60000 1.35456 -0.22846 0.08114
154.70000 1.46538 -0.07257 -0.03918
154.80000 1.49769 -0.09735 0.00234
154.90000 1.42451 -0.18116 0.02105
155.00000 1.47635 -0.18967 -0.00764
155.10000 1.49690 0.19934 -0.03013
155.20000 1.45199 0.45540 -0.00826
155.30000 1.44443 0.32947 0.00885
155.40000 1.48751 0.05517 -0.00330
155.50000 1.44306 0.02939 -0.04996
155.60000 1.47126 0.20777 0.04405
155.70000 1.46252 0.23087 -0.01648
155.80000 1.46113 0.01518 0.03004
155.90000 1.43859 0.19926 0.00110
156.00000 1.43813 0.34920 -0.00346
156.10000 1.49206 0.20108 0.08042
156.20000 1.49691 -0.15464 -0.05707
156.30000 1.46889 -0.16330 0.00514
156.40000 1.44740 -0.05947 0.07204
156.50000 1.48387 0.05684 -0.00687
156.60000 1.42838 0.09137 -0.01660
156.70000 1.42766 0.03437 0.04674
156.80000 1.49261 0.12842 -0.00474
156.90000 1.45616 0.14122 -0.02504
157.00000 1.52361 -0.01287 0.05067
157.10000 1.49360 -0.07881 0.01606
157.20000 1.41524 0.01640 -0.02806
157.30000 1.48393 -0.15882 -0.02716
157.40000 1.48107 -0.20283 -0.00932
157.50000 1.46731 -0.16564 0.07772
157.60000 1.47144 -0.01740 -0.01732
157.70000 1.45288 0.20529 -0.04130
157.80000 1.45174 0.18103 -0.08371
157.90000 1.46535 0.28578 -0.00208
158.00000 1.45259 0.24113 0.05381
158.10000 1.48223 0.25844 -0.01408
158.20000 1.42935 0.10206 -0.06727
158.30000 1.41365 0.04216 0.08242
158.40000 1.54270 0.18434 -0.00729
158.50000 1.45618 0.11760 0.00080
158.60000 1.45311 -0.00572 -0.01611
158.70000 1.48425 -0.12032 0.02309
158.80000 1.47384 0.06545 -0.00844
158.90000 1.41309 0.03980 -0.03624
159.00000 1.42047 0.08815 -0.05232
159.10000 1.52640 0.07898 0.03464
159.20000 1.42395 -0.04582 -0.02629
159.30000 1.47629 -0.08399 -0.02958
159.40000 1.51653 -0.03737 0.00423
159.50000 1.40778 -0.16760 0.03368
159.60000 1.46567 -0.17913 0.00677
159.70000 1.44818 -0.18953 0.00913
159.80000 1.48027 -0.13030 -0.03446
159.90000 1.42601 -0.08939 0.01119
160.00000 1.41825 -0.08359 -0.01792
160.10000 1.50522 0.14144 0.03701
160.20000 1.46866 0.34533 -0.06451
160.30000 1.42590 0.49779 0.02601
160.40000 1.45369 0.30873 -0.06645
160.50000 1.48586 0.15732 -0.02314
160.60000 1.45450 -0.09928 -0.00279
160.70000 1.47612 -0.15044 0.04678
160.80000 1.49223 -0.07667 -0.00295
160.90000 1.42269 -0.02307 -0.00503
161.00000 1.48862 -0.00687 -0.00837
161.10000 1.48998 -0.12810 -0.01047
161.20000 1.39708 -0.06900 0.01222
161.30000 1.40681 0.07580 -0.04023
161.40000 1.52277 0.05486 0.03052
161.50000 1.47793 0.03949 -0.08122
161.60000 1.40691 0.04909 0.00137
161.70000 1.46903 0.10092 -0.00179
161.80000 1.52514 -0.06177 -0.01557
161.90000 1.45137 -0.24929 -0.02753
162.00000 1.47042 -0.05325 -0.00517
162.10000 1.47517 0.00711 0.07990
162.20000 1.44773 -0.03405 -0.04414
162.30000 1.55267 0.04461 -0.03993
162.40000 1.45535 0.13862 0.00417
162.50000 1.39615 0.12237 -0.02488
162.60000 1.41658 -0.03596 -0.02104
162.70000 1.44349 -0.15861 0.04691
162.80000 1.45748 -0.17595 0.03439
162.90000 1.41680 -0.01485 -0.00134
163.00000 1.54024 0.05738 -0.09829
163.10000 1.45516 -0.09972 0.03012
163.20000 1.43589 -0.17962 0.01475
163.30000 1.46597 -0.10656 -0.01479
163.40000 1.41016 0.00769 0.08559
163.50000 1.46957 0.09282 -0.02496
163.60000 1.53872 0.17680 0.00296
163.70000 1.39535 0.16391 -0.05120
163.80000 1.42024 0.29332 0.02438
163.90000 1.51424 0.21825 -0.01260
164.00000 1.48604 0.17845 0.02946
164.10000 1.42947 0.06824 -0.06389
164.20000 1.44840 -0.09007 0.02894
164.30000 1.53778 -0.21177 0.09107
164.40000 1.43827 -0.04427 0.01521
164.50000 1.42968 0.09428 -0.03385
164.60000 1.53555 0.15993 -0.01487
164.70000 1.45787 0.23903 -0.00617
164.80000 1.47654 0.12015 -0.01750
164.90000 1.48424 0.03876 0.03228
165.00000 1.42887 -0.08592 0.00147
165.10000 1.40142 0.09210 -0.04174
165.20000 1.47847 0.21920 -0.04246
165.30000 1.54244 -0.08610 0.07105
165.40000 1.44982 -0.14265 -0.00615
165.50000 1.47380 -0.18042 -0.06323
165.60000 1.44739 -0.13546 0.03853
165.70000 1.42336 -0.02460 0.03344
165.80000 1.46018 0.22111 -0.03686
165.90000 1.47626 0.12340 -0.01904
166.00000 1.41366 -0.01754 0.05782
166.10000 1.43941 0.01095 -0.03215
166.20000 1.51253 0.04197 -0.02016
166.30000 1.39326 0.17786 0.00434
166.40000 1.38853 0.03712 0.03957
166.50000 1.48608 0.05232 -0.04294
166.60000 1.47760 0.05524 0.00065
166.70000 1.46799 0.00182 0.02090
166.80000 1.49009 0.04927 -0.03764
166.90000 1.41828 0.01597 0.04724
167.00000 1.44457 -0.08459 -0.01276
167.10000 1.54662 -0.17826 0.04968
167.20000 1.43206 -0.08139 -0.00315
167.30000 1.42692 -0.07470 -0.07103
167.40000 1.47432 0.03832 0.06241
167.50000 1.43541 0.00366 -0.01403
167.60000 1.50941 -0.04050 -0.04586
167.70000 1.50858 -0.04013 0.02530
167.80000 1.48790 0.05442 -0.05383
167.90000 1.44827 0.02397 0.03399
168.00000 1.48413 0.09700 0.00539
168.10000 1.44622 0.14966 0.00605
168.20000 1.39993 0.24589 -0.02821
168.30000 1.49841 0.16165 -0.04780
168.40000 1.48309 -0.17034 -0.00401
168.50000 1.45338 -0.37084 0.03508
168.60000 1.47766 -0.17681 -0.03893
168.70000 1.47155 0.07050 0.03368
168.80000 1.46177 0.25538 -0.01525
168.90000 1.42018 0.29381 0.00997
169.00000 1.46096 0.29794 -0.02461
169.10000 1.46989 0.33595 -0.01351
169.20000 1.44001 0.26634 0.02181
169.30000 1.51213 0.12590 0.00818
169.40000 1.45071 -0.05857 0.04448
169.50000 1.47577 -0.15394 0.01655
169.60000 1.42817 -0.09649 0.00022
169.70000 1.42810 -0.15906 0.00644
169.80000 1.53494 0.02314 0.02780
169.90000 1.45583 0.11566 -0.01196
170.00000 1.46283 0.23525 0.01896
170.10000 1.49371 0.27412 -0.02684
170.20000 1.36662 0.18768 -0.04146
170.30000 1.48692 -0.04425 0.02700
170.40000 1.48335 -0.20799 -0.02186
170.50000 1.47367 -0.07260 -0.02024
170.60000 1.44114 0.05681 0.01366
170.70000 1.46973 0.20498 0.00836
170.80000 1.44967 0.18359 -0.00269
170.90000 1.49142 -0.08204 0.05421
171.00000 1.44095 0.05335 0.03114
171.10000 1.47685 0.15042 -0.03501
171.20000 1.43311 0.18399 0.00889
171.30000 1.46325 0.12403 0.01570
171.40000 1.51374 -0.04537 -0.00284
171.50000 1.49799 -0.07142 0.00865
171.60000 1.43741 -0.00415 0.02303
171.70000 1.40723 -0.11103 -0.03482
171.80000 1.49080 0.02751 -0.03217
171.90000 1.49906 0.37931 -0.00696
172.00000 1.48314 0.46390 0.06560
172.10000 1.46650 0.04682 -0.04871
172.20000 1.46578 -0.38595 0.01136
172.30000 1.49827 -0.28006 -0.03770
172.40000 1.45308 0.05989 -0.04089
172.50000 1.46114 0.17811 0.03055
172.60000 1.47071 0.11847 -0.03728
172.70000 1.45068 0.04484 -0.01697
172.80000 1.47793 -0.11318 0.04693
172.90000 1.50731 -0.15069 -0.00672
173.00000 1.43093 0.12121 -0.01836
173.10000 1.46303 0.01543 0.05709
173.20000 1.48085 -0.04588 -0.06255
173.30000 1.43506 -0.00385 -0.04133
173.40000 1.49717 -0.05435 0.11407
173.50000 1.48503 -0.18152 0.00125
173.60000 1.49821 -0.27483 -0.04798
173.70000 1.46128 0.08184 0.06785
173.80000 1.45671 0.25757 -0.04341
173.90000 1.43765 0.21494 0.00577
174.00000 1.44918 0.12192 0.03224
174.10000 1.46563 -0.00611 0.01247
174.20000 1.44577 -0.13555 -0.02041
174.30000 1.46519 -0.06910 -0.00069
174.40000 1.52274 0.00165 -0.02282
174.50000 1.43057 -0.03943 0.01469
174.60000 1.46726 -0.15842 0.02882
174.70000 1.46632 -0.24565 0.09576
174.80000 1.52720 -0.00178 -0.04979
174.90000 1.49422 0.07875 -0.03976
175.00000 1.48855 0.03341 0.05909
175.10000 1.48028 -0.16923 0.04811
175.20000 1.42237 -0.18435 -0.10961
175.30000 1.45169 -0.13014 0.03131
175.40000 1.46213 -0.14368 0.02124
175.50000 1.43381 -0.13708 -0.00614
175.60000 1.46358 -0.26382 -0.01397
175.70000 1.47169 -0.27590 -0.02517
175.80000 1.40820 -0.18704 0.03319
175.90000 1.50619 -0.25186 0.02621
176.00000 1.45722 -0.17018 -0.07347
176.10000 1.44003 0.05136 0.01345
176.20000 1.51585 0.11169 0.00821
176.30000 1.41708 0.05121 -0.02924
176.40000 1.42939 0.05023 0.00813
176.50000 1.47019 -0.05122 -0.01279
176.60000 1.48657 0.04409 -0.01012
176.70000 1.44979 0.12124 0.03992
176.80000 1.49191 -0.02073 -0.05717
176.90000 1.46816 -0.02539 0.06598
177.00000 1.42698 -0.06295 -0.05562
177.10000 1.45773 -0.18483 -0.01396
177.20000 1.50965 -0.13453 0.03873
177.30000 1.43038 0.00326 -0.00064
177.40000 1.38958 0.07319 -0.01457
177.50000 1.51796 0.05882 -0.00464
177.60000 1.49236 -0.02181 -0.02824
177.70000 1.43642 -0.28529 0.02211
177.80000 1.47810 -0.10758 -0.00795
177.90000 1.46256 0.09312 -0.01473
178.00000 1.44981 0.01392 -0.03524
178.10000 1.48920 -0.20187 -0.00434
178.20000 1.46146 -0.39116 0.03895
178.30000 1.48876 -0.48429 0.03155
178.40000 1.43294 -0.29478 -0.03616
178.50000 1.44964 0.01494 -0.01944
178.60000 1.41946 0.18612 -0.00239
178.70000 1.47458 0.34723 -0.02826
178.80000 1.45866 0.41691 -0.02550
178.90000 1.42453 0.14429 0.02684
179.00000 1.49026 -0.16281 0.05325
179.10000 1.42122 -0.27059 -0.03472
179.20000 1.47069 -0.04998 0.03184
179.30000 1.44311 0.15910 -0.06669
179.40000 1.47951 0.06362 -0.00756
179.50000 1.50080 -0.15969 -0.00924
179.60000 1.41070 -0.24387 0.02361
179.70000 1.47992 -0.00600 -0.00232
179.80000 1.44241 0.21391 -0.02166
179.90000 1.44584 0.17257 -0.00384
180.00000 1.43702 0.05452 0.01389
180.10000 1.47743 0.05585 -0.01151
180.20000 1.45386 0.01125 -0.02545
180.30000 1.48501 0.08333 0.00159
180.40000 1.47019 0.14157 -0.02621
180.50000 1.43325 0.12233 0.00226
180.60000 1.48387 0.12603 0.05830
180.70000 1.53406 0.09613 -0.02874
180.80000 1.45222 0.00212 -0.04083
180.90000 1.40258 -0.02719 0.03298
181.00000 1.49933 -0.08638 -0.05568
181.10000 1.47063 -0.10250 -0.01968
181.20000 1.48420 -0.01838 0.03164
181.30000 1.43692 0.06659 0.03531
181.40000 1.45392 0.03687 0.03190
181.50000 1.45954 -0.04705 -0.05186
181.60000 1.49109 -0.06585 0.00729
181.70000 1.48309 -0.20990 -0.01625
181.80000 1.43377 -0.08385 0.03970
181.90000 1.44697 0.13821 0.00342
182.00000 1.44321 0.11053 -0.02506
182.10000 1.52821 0.03186 -0.02391
182.20000 1.42007 -0.02445 -0.01236
182.30000 1.40894 0.00308 0.04374
182.40000 1.50380 0.12826 -0.02347
182.50000 1.48565 0.07996 -0.00596
182.60000 1.44765 0.02650 -0.01132
182.70000 1.43672 0.05882 0.01438
182.80000 1.60701 -0.12872 0.04341
182.90000 1.40901 -0.05055 -0.11892
183.00000 1.40903 -0.04744 0.04557
183.10000 1.44949 -0.17434 0.03957
183.20000 1.44216 -0.00034 -0.04947
183.30000 1.50960 0.00430 -0.01941
183.40000 1.45309 0.00995 0.02093
183.50000 1.52035 0.03915 0.05729
183.60000 1.48347 -0.03401 -0.06233
183.70000 1.48528 0.02255 -0.00048
183.80000 1.46542 0.10438 0.00991
183.90000 1.41845 0.07046 -0.01814
184.00000 1.49816 -0.09414 -0.03202
184.10000 1.45384 -0.15785 0.09974
184.20000 1.40551 0.01685 -0.03198
184.30000 1.54631 0.23869 -0.00318
184.40000 1.49543 0.00836 -0.01423
184.50000 1.43163 -0.21550 0.09711
184.60000 1.43838 -0.29783 -0.06856
184.70000 1.48229 -0.27564 -0.05126
184.80000 1.45378 -0.11654 0.04850
184.90000 1.44724 -0.01223 0.04711
185.00000 1.52283 0.04558 -0.07754
185.10000 1.47884 0.03939 -0.03174
185.20000 1.42681 -0.02188 0.07000
185.30000 1.45888 0.03864 0.01113
185.40000 1.47961 0.04150 -0.05868
185.50000 1.46733 0.10812 0.03231
185.60000 1.49203 0.20250 0.00758
185.70000 1.49430 0.12664 -0.01797
185.80000 1.42658 0.07308 0.05017
185.90000 1.44385 0.08423 -0.01526
186.00000 1.51102 0.32836 -0.00001
186.10000 1.43732 0.27387 0.03300
186.20000 1.48094 0.12335 -0.05056
186.30000 1.44874 0.11675 0.00721
186.40000 1.47725 0.31562 0.01845
186.50000 1.51436 0.44865 0.02009
186.60000 1.43480 0.45871 -0.01406
186.70000 1.42558 0.25879 -0.02330
186.80000 1.52405 0.17353 -0.02323
186.90000 1.48755 0.07539 0.02137
187.00000 1.44987 0.07889 0.01351
187.10000 1.42270 0.07072 0.04946
187.20000 1.50491 -0.06777 -0.01934
187.30000 1.45800 -0.00172 -0.04443
187.40000 1.45182 0.09456 0.01375
187.50000 1.43599 0.15268 0.02370
187.60000 1.44094 0.04701 -0.06800
187.70000 1.55229 0.01948 -0.05967
187.80000 1.47385 -0.17953 0.04373
187.90000 1.46052 -0.14305 0.04786
188.00000 1.44799 0.02393 -0.06518
188.10000 1.49263 0.11040 0.01135
188.20000 1.45842 0.09707 0.01868
188.30000 1.47289 0.12675 0.02293
188.40000 1.46699 0.01888 0.02472
188.50000 1.44059 0.05168 -0.04087
188.60000 1.53035 0.08786 0.05709
188.70000 1.49916 -0.00204 -0.01926
188.80000 1.44097 -0.16612 0.00665
188.90000 1.54347 -0.06088 0.00888
189.00000 1.47447 0.08459 0.02399
189.10000 1.44399 0.20916 -0.01022
189.20000 1.45314 0.06363 0.09804
189.30000 1.41844 0.00608 0.03718
189.40000 1.45900 0.00568 -0.02073
189.50000 1.51582 0.04890 0.08275
189.60000 1.49158 -0.09396 0.00987
189.70000 1.45635 0.04199 -0.04168
189.80000 1.43640 0.10134 0.03121
189.90000 1.50661 0.04421 0.01784
190.00000 1.54374 -0.14287 0.04062
190.10000 1.46861 -0.15944 -0.02934
190.20000 1.42299 -0.13753 0.01382
190.30000 1.46118 0.17089 -0.00440
190.40000 1.47391 0.29263 -0.02425
190.50000 1.44369 0.40140 0.03828
190.60000 1.45381 0.34084 -0.06032
190.70000 1.46790 0.05738 0.05280
190.80000 1.48678 -0.16464 -0.03149
190.90000 1.47121 -0.05086 0.01223
191.00000 1.44263 -0.02798 -0.00194
191.10000 1.46010 -0.01249 -0.00558
191.20000 1.49206 -0.01461 -0.01487
191.30000 1.47762 0.07605 -0.03317
191.40000 1.47665 -0.00188 -0.00908
191.50000 1.50245 0.02152 0.06871
191.60000 1.43691 -0.06159 -0.01737
191.70000 1.42422 -0.11448 -0.04800
191.80000 1.48921 -0.12248 0.01755
191.90000 1.51178 -0.14589 -0.03883
192.00000 1.46396 -0.13695 0.01355
192.10000 1.48094 -0.14613 0.01721
192.20000 1.47869 -0.11414 -0.00603
192.30000 1.45877 -0.06765 -0.01245
192.40000 1.48121 -0.03826 0.04897
192.50000 1.44891 -0.12627 -0.02383
192.60000 1.40704 0.03366 0.01602
192.70000 1.47958 -0.06755 -0.02219
192.80000 1.51719 0.00898 -0.04475
192.90000 1.40255 0.36313 0.01259
193.00000 1.50519 0.29844 -0.02657
193.10000 1.47245 0.11454 -0.05838
193.20000 1.44684 0.00618 -0.01197
193.30000 1.47068 -0.06200 0.00582
193.40000 1.46332 -0.13593 -0.00131
193.50000 1.42842 -0.18383 -0.02085
193.60000 1.43739 -0.06417 0.02511
193.70000 1.47972 -0.08789 0.03785
193.80000 1.50678 -0.00884 0.00293
193.90000 1.42831 -0.04111 -0.04255
194.00000 1.47533 0.04883 0.02948
194.10000 1.46420 0.11836 0.00944
194.20000 1.44995 0.05685 0.01537
194.30000 1.47559 -0.01748 -0.04008
194.40000 1.49532 0.01858 0.01309
194.50000 1.44333 -0.08719 0.03647
194.60000 1.43002 -0.16083 0.01129
194.70000 1.50608 -0.07993 -0.00756
194.80000 1.48243 -0.04176 0.06274
194.90000 1.40508 -0.03659 -0.04878
195.00000 1.44902 0.11983 0.01237
195.10000 1.51586 0.29444 0.01827
195.20000 1.47310 0.26880 -0.02031
195.30000 1.45627 0.23835 0.04264
195.40000 1.45827 0.13439 -0.02790
195.50000 1.44364 -0.01373 -0.01456
195.60000 1.45699 0.02141 0.04500
195.70000 1.45193 -0.07600 0.01970
195.80000 1.50908 0.04828 0.02090
195.90000 1.44248 0.11154 0.01167
196.00000 1.50684 0.08230 -0.02100
196.10000 1.46892 -0.13412 0.00487
196.20000 1.38511 -0.02086 0.03018
196.30000 1.50462 0.00115 -0.00528
196.40000 1.42495 -0.09732 -0.01893
196.50000 1.43567 0.01317 0.04645
196.60000 1.52283 -0.11819 0.00889
196.70000 1.43057 -0.08981 -0.03379
196.80000 1.46233 0.15893 0.01549
196.90000 1.48132 0.05967 0.01773
197.00000 1.56035 -0.05886 -0.01150
197.10000 1.37247 -0.20575 -0.02528
197.20000 1.41994 -0.11137 -0.00208
197.30000 1.55691 0.20983 0.04376
197.40000 1.49613 0.17701 -0.07954
197.50000 1.41531 0.18236 0.02628
197.60000 1.44185 0.09448 0.01735
197.70000 1.43961 -0.11829 -0.01799
197.80000 1.45353 -0.02303 0.00723
197.90000 1.44112 0.06020 0.03248
198.00000 1.42900 0.20983 0.00061
198.10000 1.43996 0.24600 0.00982
198.20000 1.42303 0.06249 0.00809
198.30000 1.54353 -0.11150 0.00310
198.40000 1.42980 -0.17593 -0.00261
198.50000 1.46139 0.09703 -0.01001
198.60000 1.42962 0.26037 -0.04975
198.70000 1.45154 0.03276 -0.01426
198.80000 1.41908 0.00953 0.03228
198.90000 1.47472 0.06744 -0.05688
199.00000 1.42082 0.20271 -0.03020
199.10000 1.46101 0.06341 0.06194
199.20000 1.45411 0.02747 -0.01835
199.30000 1.47169 -0.02360 -0.00177
199.40000 1.45468 -0.09176 -0.00750
199.50000 1.38669 -0.02091 0.01801
199.60000 1.47013 -0.04989 0.07917
199.70000 1.50492 -0.10582 -0.09450
199.80000 1.49816 -0.14870 0.03757
199.90000 1.43760 0.01253 0.02773
200.00000 1.45220 -0.01897 -0.02523
200.10000 1.53900 -0.01858 0.03434
200.20000 1.44963 -0.01567 -0.01664
200.30000 1.46005 0.00662 0.02402
200.40000 1.51673 0.09531 -0.04761
200.50000 1.43260 -0.01600 0.05224
200.60000 1.45290 -0.06247 0.00437
200.70000 1.47500 -0.31877 -0.11728
200.80000 1.51505 -0.37580 0.03871
200.90000 1.47125 -0.06282 0.04699
201.00000 1.41447 0.09080 0.00202
201.10000 1.49084 0.15168 -0.06119
201.20000 1.46535 0.08967 -0.04245
201.30000 1.42078 0.11174 0.06484
201.40000 1.43267 0.05813 -0.05612
201.50000 1.52937 0.10021 0.01852
201.60000 1.42640 0.02746 -0.02150
201.70000 1.43085 0.04505 0.01753
201.80000 1.51899 -0.02550 -0.02315
201.90000 1.48068 -0.02068 -0.02096
202.00000 1.41100 -0.06411 0.05364
202.10000 1.51778 0.00343 -0.03707
202.20000 1.49052 -0.13017 0.03390
202.30000 1.49250 -0.21132 0.00136
202.40000 1.47973 -0.16074 0.00294
202.50000 1.43322 -0.09358 -0.01900
202.60000 1.47211 -0.17022 -0.02866
202.70000 1.54653 -0.17624 -0.02241
202.80000 1.46963 -0.04513 0.06771
202.90000 1.43520 -0.01699 0.02446
203.00000 1.44201 0.16704 -0.06750
203.10000 1.44668 0.12359 0.05086
203.20000 1.45461 0.07608 0.02334
203.30000 1.47695 0.09108 0.01261
203.40000 1.46554 0.22468 -0.05032
203.50000 1.42012 0.35066 0.01038
203.60000 1.43604 0.20311 0.04175
203.70000 1.51031 0.04419 -0.03442
203.80000 1.44826 0.04503 -0.01869
203.90000 1.52848 0.12023 0.07879
204.00000 1.47344 0.06910 -0.07140
204.10000 1.38660 -0.07323 0.00379
204.20000 1.49907 -0.22819 0.06122
204.30000 1.48118 -0.30352 -0.06753
204.40000 1.39020 -0.07400 -0.03238
204.50000 1.48290 0.16881 0.04951
204.60000 1.52940 0.23762 0.02654
204.70000 1.45594 0.34450 -0.00764
204.80000 1.47034 0.04985 0.01639
204.90000 1.50006 -0.07610 0.02086
205.00000 1.37102 -0.06619 0.00468
205.10000 1.45443 -0.07988 -0.03940
205.20000 1.53522 -0.11017 0.02032
205.30000 1.43076 0.02408 -0.03289
205.40000 1.44862 0.25074 0.02480
205.50000 1.48443 0.14264 -0.03228
205.60000 1.42107 0.03205 0.00794
205.70000 1.47713 0.03358 0.02209
205.80000 1.50712 -0.13250 -0.01225
205.90000 1.45227 -0.16607 -0.08256
206.00000 1.43830 -0.06479 0.02857
206.10000 1.44906 0.06754 -0.03690
206.20000 1.47491 0.11150 -0.00046
206.30000 1.51365 0.23059 0.03289
206.40000 1.44967 0.33865 0.04427
206.50000 1.42368 0.13025 -0.01091
206.60000 1.42862 -0.16864 -0.01520
206.70000 1.45575 -0.23326 0.04180
206.80000 1.48895 -0.04167 -0.00220
206.90000 1.48007 0.25094 -0.04861
207.00000 1.49561 0.33753 0.01381
207.10000 1.43694 0.23366 -0.01732
207.20000 1.41240 -0.00217 -0.00112
207.30000 1.45265 -0.06664 -0.05389
207.40000 1.44867 0.00274 0.03123
207.50000 1.46197 0.08177 0.01746
207.60000 1.46987 0.12664 0.04444
207.70000 1.41562 0.13685 -0.01632
207.80000 1.45384 0.18784 0.02778
207.90000 1.49671 0.24469 0.05876
208.00000 1.43998 0.30338 -0.02526
208.10000 1.47335 0.15412 -0.04107
208.20000 1.50082 0.10256 0.06509
208.30000 1.43821 -0.12190 -0.00085
208.40000 1.46163 -0.28552 -0.01787
208.50000 1.44579 -0.22415 -0.02149
208.60000 1.44386 -0.05613 -0.02501
208.70000 1.42406 -0.00662 0.01106
208.80000 1.46481 0.06858 0.01963
208.90000 1.50183 0.17331 0.03158
209.00000 1.49613 -0.04460 -0.02160
209.10000 1.45091 -0.13280 -0.02479
209.20000 1.51651 -0.13119 0.03193
209.30000 1.44311 -0.19454 -0.05970
209.40000 1.46975 0.01637 -0.02246
209.50000 1.49010 0.19818 0.05000
209.60000 1.48149 0.09851 -0.02927
209.70000 1.45217 0.17618 -0.03012
209.80000 1.42925 -0.01957 0.01832
209.90000 1.48250 -0.25479 0.02059
210.00000 1.45137 -0.23317 -0.02060
210.10000 1.43694 0.13806 0.03011
210.20000 1.52313 0.37070 0.03709
210.30000 1.53697 0.24601 -0.07413
210.40000 1.46824 0.12779 0.00775
210.50000 1.42888 -0.03916 -0.00121
210.60000 1.41146 -0.07221 -0.06016
210.70000 1.51979 -0.08862 0.03979
210.80000 1.54474 -0.16186 -0.02208
210.90000 1.39440 -0.13094 -0.06548
211.00000 1.44246 -0.27887 -0.05410
211.10000 1.52391 -0.38724 0.07817
211.20000 1.49427 -0.30512 0.05312
211.30000 1.41180 -0.08496 0.02492
211.40000 1.44408 0.09905 -0.02038
211.50000 1.43990 0.05470 -0.00136
211.60000 1.46369 -0.01409 -0.06002
211.70000 1.46471 -0.02460 -0.00230
211.80000 1.51287 -0.06575 -0.02469
211.90000 1.44859 -0.19662 -0.00578
212.00000 1.41461 -0.20177 -0.01230
212.10000 1.50767 0.01896 -0.01092
212.20000 1.54629 0.24435 0.00521
212.30000 1.41508 0.08825 -0.02431
212.40000 1.46605 -0.02279 -0.00485
212.50000 1.43252 -0.14798 0.01536
212.60000 1.51345 -0.24096 -0.00362
212.70000 1.48643 -0.15321 -0.04527
212.80000 1.42352 -0.02189 0.00094
212.90000 1.46978 -0.06994 -0.00001
213.00000 1.46320 -0.19813 0.01628
213.10000 1.47074 -0.33214 0.00289
213.20000 1.49294 -0.25149 -0.02387
213.30000 1.44233 -0.06454 -0.02373
213.40000 1.43760 0.29284 0.03114
213.50000 1.45298 0.22970 0.03215
213.60000 1.47950 0.06902 -0.02189
213.70000 1.47247 0.00979 -0.02296
213.80000 1.47783 0.13043 0.06977
213.90000 1.47375 0.03615 0.02432
214.00000 1.45254 -0.13015 -0.08306
214.10000 1.44053 -0.12290 0.00413
214.20000 1.44802 -0.00379 0.09638
214.30000 1.49848 0.13290 -0.01967
214.40000 1.52761 0.41869 -0.08112
214.50000 1.45759 0.24168 0.06919
214.60000 1.47045 -0.02260 0.02865
214.70000 1.43820 -0.27815 -0.02266
214.80000 1.50550 -0.25242 -0.05275
214.90000 1.44558 0.01310 0.03500
215.00000 1.45105 0.16096 0.00480
215.10000 1.42344 0.13470 -0.01478
215.20000 1.44376 -0.04268 -0.01560
215.30000 1.46887 -0.05730 0.00909
215.40000 1.45339 0.04816 -0.04846
215.50000 1.47699 0.12361 0.00209
215.60000 1.48529 0.12032 0.07426
215.70000 1.43256 0.10931 -0.01507
215.80000 1.43354 0.20170 -0.00312
215.90000 1.44857 0.28433 0.03061
216.00000 1.49429 0.23261 -0.00873
216.10000 1.43771 0.08898 -0.01702
216.20000 1.42515 -0.04558 -0.01345
216.30000 1.47246 -0.17641 0.00529
216.40000 1.43662 -0.15363 -0.00071
216.50000 1.47765 -0.21098 -0.03041
216.60000 1.48391 -0.36377 0.02552
216.70000 1.45446 -0.41550 0.02682
216.80000 1.48526 -0.16199 -0.04285
216.90000 1.48387 0.02973 0.00760
217.00000 1.48885 0.26232 -0.00696
217.10000 1.40799 0.12614 -0.05304
217.20000 1.44310 0.17952 0.01545
217.30000 1.44139 0.26934 0.06650
217.40000 1.46591 0.29326 -0.05296
217.50000 1.46737 0.12456 0.02181
217.60000 1.49925 -0.03184 0.04139
217.70000 1.41219 -0.22431 -0.06435
217.80000 1.49922 -0.44835 0.02591
217.90000 1.43533 -0.27959 0.02438
218.00000 1.41407 0.16062 0.02579
218.10000 1.43339 0.42945 -0.01013
218.20000 1.45652 0.24597 0.03197
218.30000 1.47962 -0.08503 -0.04679
218.40000 1.49908 -0.10047 0.00242
218.50000 1.44030 -0.07111 0.02748
218.60000 1.45462 0.14120 -0.00689
218.70000 1.46491 0.04991 -0.00897
218.80000 1.47343 -0.13271 0.05525
218.90000 1.53382 0.04621 0.02539
219.00000 1.43170 0.14193 0.04668
219.10000 1.47890 0.25983 -0.04984
219.20000 1.44257 0.28974 -0.04346
219.30000 1.40133 0.07087 0.02660
219.40000 1.44913 -0.25309 0.00526
219.50000 1.48333 -0.31493 -0.01058
219.60000 1.46894 -0.15361 0.05058
219.70000 1.46776 -0.03483 -0.02682
219.80000 1.48675 -0.03880 -0.02499
219.90000 1.47084 -0.00452 0.01302
220.00000 1.49785 0.07322 -0.03471
220.10000 1.49808 0.09756 -0.02872
220.20000 1.47301 0.12159 0.01013
220.30000 1.48932 0.14309 -0.06251
220.40000 1.37161 -0.07726 0.02752
220.50000 1.47168 -0.13057 0.00012
220.60000 1.50392 -0.20116 -0.07066
220.70000 1.47715 -0.23795 0.04706
220.80000 1.45831 -0.10668 -0.06494
220.90000 1.48213 0.04212 0.00321
221.00000 1.47454 0.23187 0.04269
221.10000 1.39450 0.27446 0.00164
221.20000 1.45778 0.14136 -0.04301
221.30000 1.56678 -0.21083 -0.00431
221.40000 1.46928 -0.09720 0.05026
221.50000 1.42001 0.13213 -0.03282
221.60000 1.49460 0.08407 -0.00615
221.70000 1.45257 -0.10578 0.00950
221.80000 1.47963 0.04313 -0.03723
221.90000 1.42478 0.25002 -0.04847
222.00000 1.48541 0.12461 -0.02692
222.10000 1.42286 0.00217 0.11449
222.20000 1.46339 -0.15038 0.00454
222.30000 1.47866 -0.07708 -0.01286
222.40000 1.42055 0.00762 0.00923
222.50000 1.44841 0.08100 0.06145
222.60000 1.48796 0.18899 -0.07295
222.70000 1.42923 0.05252 0.00819
222.80000 1.44694 -0.19834 -0.00118
222.90000 1.45221 -0.07989 0.00361
223.00000 1.48901 0.05960 0.05092
223.10000 1.45399 0.08670 -0.02674
223.20000 1.44951 0.00529 0.00993
223.30000 1.48109 -0.01092 -0.00294
223.40000 1.48401 -0.16506 -0.02068
223.50000 1.43631 -0.29809 -0.04617
223.60000 1.45725 -0.29321 0.02843
223.70000 1.39739 -0.18076 -0.01731
223.80000 1.48266 -0.09724 -0.04079
223.90000 1.47348 -0.01664 -0.02589
224.00000 1.42186 0.05694 0.02221
224.10000 1.47497 0.12111 -0.00545
224.20000 1.51576 0.06884 0.00533
224.30000 1.44432 -0.02666 -0.00912
224.40000 1.53019 -0.04238 0.04998
224.50000 1.46988 -0.15364 -0.04157
224.60000 1.42235 -0.17162 -0.09484
224.70000 1.43735 -0.32715 -0.02953
224.80000 1.49799 -0.37508 0.03950
224.90000 1.44876 -0.26417 -0.02808
225.00000 1.45095 -0.14396 0.04014
225.10000 1.45224 0.20879 -0.01071
225.20000 1.48037 0.30121 -0.07532
225.30000 1.46980 0.10689 0.00856
225.40000 1.42804 -0.07530 -0.01754
225.50000 1.46463 -0.07088 -0.05593
225.60000 1.49396 -0.15420 0.06016
225.70000 1.52527 -0.10302 -0.00641
225.80000 1.46845 0.09423 -0.05589
225.90000 1.49164 0.15109 -0.00392
226.00000 1.46490 -0.01759 0.04614
226.10000 1.48564 -0.11564 0.08342
226.20000 1.43130 0.03850 -0.03232
226.30000 1.47126 0.04575 -0.03316
226.40000 1.49984 -0.07791 0.00914
226.50000 1.47280 -0.15247 -0.02767
226.60000 1.45899 -0.15253 -0.03124
226.70000 1.42145 -0.13563 0.01771
226.80000 1.45330 0.03492 -0.07022
226.90000 1.50319 0.09400 0.02901
227.00000 1.51211 0.12360 0.02001
227.10000 1.44200 -0.02415 0.01546
227.20000 1.41610 -0.23960 -0.04250
227.30000 1.49785 -0.21068 0.04501
227.40000 1.48635 -0.23021 -0.02007
227.50000 1.36970 -0.09745 -0.03561
227.60000 1.45696 0.09894 0.03137
227.70000 1.47875 0.33509 0.02286
227.80000 1.48271 0.37557 0.00693
227.90000 1.44399 0.30636 -0.03392
228.00000 1.48067 0.05683 -0.05736
228.10000 1.44723 -0.13594 0.05905
228.20000 1.48065 -0.15625 -0.06731
228.30000 1.46632 -0.16115 0.02528
228.40000 1.46955 -0.19502 0.00758
228.50000 1.47109 0.00357 -0.03225
228.60000 1.46803 0.10870 0.00803
228.70000 1.49673 0.00000 0.00791
228.80000 1.51130 -0.26912 -0.05589
228.90000 1.48246 -0.28482 0.01067
229.00000 1.42509 -0.14692 -0.00967
229.10000 1.46982 0.11205 -0.00052
229.20000 1.45130 0.25080 0.05745
229.30000 1.43777 0.22470 -0.06760
229.40000 1.45868 0.29095 0.00067
229.50000 1.41986 0.04949 0.06628
229.60000 1.48180 -0.01435 -0.03677
229.70000 1.43220 -0.03786 -0.01861
229.80000 1.47928 -0.04815 -0.00661
229.90000 1.46821 -0.07085 -0.01059
230.00000 1.48652 -0.02383 -0.01278
230.10000 1.51631 0.04243 -0.00415
230.20000 1.44372 0.24836 -0.09620
230.30000 1.43130 0.04810 -0.01075
230.40000 1.47489 -0.16064 0.06351
230.50000 1.49470 -0.06894 0.00112
230.60000 1.48727 0.12751 -0.04002
230.70000 1.45819 0.16737 0.00765
230.80000 1.42433 0.15788 -0.00545
230.90000 1.50058 0.07023 -0.01574
231.00000 1.42392 -0.01012 0.03366
231.10000 1.48848 -0.10024 0.02823
231.20000 1.44773 -0.16070 -0.04357
231.30000 1.49872 -0.25815 -0.01886
231.40000 1.49770 -0.28949 0.04540
231.50000 1.49009 0.12039 0.02814
231.60000 1.40905 0.27995 -0.04321
231.70000 1.45533 0.18058 0.00940
231.80000 1.48477 0.10357 0.04418
231.90000 1.45606 -0.10320 -0.03204
232.00000 1.51521 -0.09656 -0.01658
232.10000 1.46231 0.18838 0.03495
232.20000 1.46605 0.18877 -0.07679
232.30000 1.47794 -0.05376 0.02122
232.40000 1.47023 0.00531 -0.01092
232.50000 1.48787 0.24091 0.04198
232.60000 1.47965 0.16319 0.01598
232.70000 1.47267 -0.05781 -0.04455
232.80000 1.41588 -0.19603 0.07910
232.90000 1.38495 -0.06960 -0.01593
233.00000 1.53657 0.02099 0.00748
233.10000 1.44590 -0.00987 -0.00614
233.20000 1.43001 -0.02840 0.02251
233.30000 1.53827 -0.17577 0.02154
233.40000 1.46520 -0.11384 -0.03606
233.50000 1.43090 -0.03935 0.01248
233.60000 1.48718 0.21599 -0.03986
233.70000 1.46554 0.07885 0.02272
233.80000 1.44443 -0.19525 -0.04860
233.90000 1.48384 -0.31665 0.05821
234.00000 1.43258 -0.31939 0.05789
234.10000 1.44164 -0.29162 -0.01219
234.20000 1.42304 -0.14762 0.01791
234.30000 1.49684 0.07725 0.05995
234.40000 1.54299 -0.01837 -0.01909
234.50000 1.44453 -0.27721 0.01030
234.60000 1.40275 -0.43475 0.00957
234.70000 1.47696 -0.43856 0.06118
234.80000 1.54543 -0.26926 -0.05707
234.90000 1.46190 -0.19747 -0.06244
235.00000 1.37538 -0.01140 0.08334
235.10000 1.48747 0.28312 -0.04755
235.20000 1.52615 0.56773 0.01053
235.30000 1.48073 0.36170 0.00401
235.40000 1.40538 0.04761 -0.01591
235.50000 1.40371 -0.09034 -0.00690
235.60000 1.47894 -0.00876 0.03478
235.70000 1.54533 0.10898 -0.01449
235.80000 1.41119 0.14413 -0.04129
235.90000 1.43889 0.15744 0.06377
236.00000 1.44333 0.11505 -0.02764
236.10000 1.52858 -0.06378 -0.00774
236.20000 1.46085 0.05473 -0.04506
236.30000 1.43101 0.26351 0.00946
236.40000 1.54869 0.23186 0.04749
236.50000 1.47529 0.05607 -0.02242
236.60000 1.40461 0.03803 0.02792
236.70000 1.53579 -0.05111 0.01500
236.80000 1.47225 -0.14676 -0.01662
236.90000 1.43509 -0.32516 -0.10473
237.00000 1.48297 -0.31579 0.00797
237.10000 1.47515 -0.03096 0.01907
237.20000 1.44461 0.15972 -0.02621
237.30000 1.38011 0.04663 0.01959
237.40000 1.44462 0.18265 -0.01243
237.50000 1.50150 0.17135 0.02279
237.60000 1.46153 -0.01926 -0.04088
237.70000 1.43139 0.07409 0.01580
237.80000 1.49076 0.16797 0.00674
237.90000 1.47253 0.24904 -0.03869
238.00000 1.46036 0.21458 -0.00152
238.10000 1.45799 0.14153 -0.03450
238.20000 1.45676 0.04845 0.01883
238.30000 1.44664 0.08909 0.00093
238.40000 1.47708 0.05056 -0.03438
238.50000 1.45262 -0.01046 -0.00127
238.60000 1.44481 -0.11584 0.05031
238.70000 1.45319 -0.33709 -0.11017
238.80000 1.45324 -0.21657 -0.00868
238.90000 1.52522 -0.02030 0.09610
239.00000 1.41153 -0.07549 -0.01116
239.10000 1.53124 -0.21853 0.01088
239.20000 1.47994 -0.26251 -0.01518
239.30000 1.43277 -0.25939 -0.00717
239.40000 1.45298 -0.18731 -0.04187
239.50000 1.47031 0.05816 0.05776
239.60000 1.43831 0.15154 0.08353
239.70000 1.44500 0.15941 -0.06631
239.80000 1.47847 0.02999 0.00987
239.90000 1.47555 -0.12391 0.06908
240.00000 1.46342 -0.15133 -0.00166
240.10000 1.46763 -0.07838 0.02636
240.20000 1.45026 -0.03678 -0.04540
240.30000 1.41902 -0.12060 0.04009
240.40000 1.45466 0.05081 -0.00411
240.50000 1.46718 0.23003 -0.01409
240.60000 1.47376 0.02483 0.02371
240.70000 1.46924 -0.09553 -0.00815
240.80000 1.51032 -0.14271 0.00789
240.90000 1.43451 -0.10782 -0.05555
241.00000 1.41356 -0.11039 -0.01874
241.10000 1.46141 0.04453 -0.00891
241.20000 1.55025 -0.04324 0.03284
241.30000 1.41590 -0.04376 -0.02265
241.40000 1.41885 0.06465 -0.06132
241.50000 1.51384 0.17022 0.07333
241.60000 1.45301 0.21029 0.00597
241.70000 1.45155 -0.05434 -0.02131
241.80000 1.47442 -0.22476 -0.00768
241.90000 1.41499 -0.32886 0.04175
242.00000 1.44384 -0.16073 -0.02192
242.10000 1.50812 -0.05854 -0.09876
242.20000 1.45756 -0.02353 0.04626
242.30000 1.40989 -0.04362 0.01524
242.40000 1.50011 -0.09233 -0.00534
242.50000 1.47634 -0.08242 0.01857
242.60000 1.45908 0.13297 -0.03269
242.70000 1.45198 0.33707 0.01518
242.80000 1.48410 0.24234 0.06973
242.90000 1.44715 -0.03573 0.05541
243.00000 1.46116 -0.10285 -0.07112
243.10000 1.49021 -0.27062 0.00620
243.20000 1.43306 -0.18865 0.05906
243.30000 1.43881 0.04641 0.00209
243.40000 1.52384 0.16689 -0.02421
243.50000 1.46945 0.13305 0.06350
243.60000 1.39827 0.12769 0.00220
243.70000 1.51621 -0.05226 -0.02788
243.80000 1.49578 -0.10247 0.01429
243.90000 1.48624 0.08102 -0.03302
244.00000 1.45711 0.13357 0.00029
244.10000 1.42584 0.12845 0.05028
244.20000 1.47267 0.08163 0.07167
244.30000 1.45985 -0.04676 -0.04968
244.40000 1.40470 -0.14592 -0.02420
244.50000 1.44527 -0.15694 0.02976
244.60000 1.42804 -0.13699 -0.03383
244.70000 1.52910 0.02645 0.02296
244.80000 1.45903 -0.14478 -0.03027
244.90000 1.44655 -0.18454 0.00397
245.00000 1.43066 -0.12539 0.02226
245.10000 1.47349 -0.12449 0.00560
245.20000 1.51737 -0.00102 -0.01697
245.30000 1.50176 0.08688 0.01098
245.40000 1.44192 -0.00535 0.01070
245.50000 1.42024 -0.03954 0.02367
245.60000 1.46476 -0.03001 0.01308
245.70000 1.48193 0.02296 0.01713
245.80000 1.45194 0.15198 -0.08146
245.90000 1.45123 0.22397 0.02469
246.00000 1.46767 0.11705 0.06543
246.10000 1.44788 -0.08810 -0.02936
246.20000 1.49001 0.05328 0.01065
246.30000 1.43950 0.30253 -0.04157
246.40000 1.45209 0.18074 -0.02691
246.50000 1.49151 0.09535 -0.00229
246.60000 1.45449 0.02492 0.05629
246.70000 1.47991 0.12151 -0.04027
246.80000 1.44478 0.10039 -0.03785
246.90000 1.42742 0.04967 0.00830
247.00000 1.45725 0.08311 -0.06096
247.10000 1.47920 -0.20517 -0.01378
247.20000 1.49861 -0.37482 -0.03914
247.30000 1.46934 -0.18812 0.05066
247.40000 1.42531 0.05581 0.06915
247.50000 1.46459 0.02995 -0.02555
247.60000 1.49875 -0.03293 0.01027
247.70000 1.43118 -0.07966 0.04178
247.80000 1.51011 0.01508 -0.04429
247.90000 1.47430 -0.09173 0.08415
248.00000 1.44853 -0.13759 0.02642
248.10000 1.48302 -0.00119 -0.08650
248.20000 1.45358 -0.07126 0.00382
248.30000 1.44785 -0.07498 0.01600
248.40000 1.47850 0.02509 -0.04624
248.50000 1.46189 0.04687 0.03270
248.60000 1.46513 -0.05535 0.02427
248.70000 1.42134 0.04537 -0.07621
248.80000 1.46251 0.12202 -0.03985
248.90000 1.45551 0.18541 -0.03408
249.00000 1.45898 0.38388 0.09429
249.10000 1.50393 0.25165 0.01217
249.20000 1.46075 0.08378 -0.03254
249.30000 1.48794 -0.06089 -0.05028
249.40000 1.44757 -0.16596 0.05914
249.50000 1.43673 -0.14153 0.00748
249.60000 1.44953 -0.04910 -0.01755
249.70000 1.43449 -0.00687 0.01081
249.80000 1.51277 -0.01795 -0.01977
249.90000 1.43132 -0.15057 -0.02381
250.00000 1.51177 -0.18921 -0.00564
250.10000 1.45809 -0.20939 -0.03849
250.20000 1.45879 -0.20577 0.04300
250.30000 1.45767 -0.15705 0.01726
250.40000 1.45349 0.01613 0.03526
250.50000 1.47185 0.03352 -0.04189
250.60000 1.41247 0.00569 -0.00645
250.70000 1.42215 -0.06611 0.00574
250.80000 1.48867 0.08657 0.05596
250.90000 1.48919 0.19792 -0.04423
251.00000 1.47231 0.32193 -0.02404
251.10000 1.43339 0.20631 0.03257
251.20000 1.45445 0.12279 -0.07479
251.30000 1.48409 0.06033 0.02379
251.40000 1.44088 0.32062 0.01479
251.50000 1.46061 0.26679 0.01950
251.60000 1.48524 -0.00582 -0.01521
251.70000 1.43266 -0.13478 0.00087
251.80000 1.48661 0.05455 0.01410
251.90000 1.44008 0.05625 0.03509
252.00000 1.49921 -0.13473 -0.01370
252.10000 1.43330 -0.03705 -0.02153
252.20000 1.44163 0.15078 0.00085
252.30000 1.47426 0.30111 0.04551
252.40000 1.46938 0.04514 -0.01320
252.50000 1.41732 0.04696 -0.04258
252.60000 1.50605 -0.03596 -0.03257
252.70000 1.45694 0.10901 -0.02634
252.80000 1.39352 0.15174 0.05234
252.90000 1.45144 0.01012 -0.01146
253.00000 1.50737 0.15445 0.00091
253.10000 1.45105 0.11323 -0.02059
253.20000 1.46142 -0.05649 -0.01186
253.30000 1.50978 -0.01244 -0.03255
253.40000 1.46748 0.14096 0.02503
253.50000 1.44267 0.29319 -0.00828
253.60000 1.43964 0.18797 0.00911
253.70000 1.45127 0.08064 0.04995
253.80000 1.47847 0.03284 0.00192
253.90000 1.46179 0.03410 -0.07056
254.00000 1.45477 0.09440 -0.02601
254.10000 1.42817 -0.11673 0.01498
254.20000 1.53897 -0.24509 -0.01412
254.30000 1.50754 -0.05526 -0.08011
254.40000 1.42202 0.10373 0.01125
254.50000 1.41117 -0.11877 0.01056
254.60000 1.48231 -0.27494 0.01421
254.70000 1.48167 -0.29879 -0.00303
254.80000 1.47933 -0.09738 -0.04507
254.90000 1.53273 -0.02198 0.01813
255.00000 1.45631 -0.10064 0.00025
255.10000 1.48508 -0.07443 -0.04931
255.20000 1.52115 0.24663 0.03997
255.30000 1.46484 0.40786 0.02250
255.40000 1.44042 0.30712 -0.03653
255.50000 1.49091 -0.07551 -0.01390
255.60000 1.49761 -0.19141 0.09286
255.70000 1.46659 -0.23098 0.01287
255.80000 1.47019 -0.13693 0.01522
255.90000 1.48387 -0.00619 0.04544
256.00000 1.43437 0.22772 0.00764
256.10000 1.53079 0.14559 0.02200
256.20000 1.49120 0.09300 0.00408
256.30000 1.43801 -0.04935 -0.00398
256.40000 1.52440 -0.16793 -0.01890
256.50000 1.42137 -0.10366 0.06477
256.60000 1.46858 -0.07702 -0.04377
256.70000 1.44889 0.06677 -0.01491
256.80000 1.47666 0.21433 0.03266
256.90000 1.49674 0.28204 0.00321
257.00000 1.47650 0.12750 0.00284
257.10000 1.46831 -0.17060 0.00778
257.20000 1.48048 -0.35505 0.00909
257.30000 1.49456 -0.32041 0.04619
257.40000 1.41610 -0.24743 0.00986
257.50000 1.47928 -0.26774 -0.00763
257.60000 1.43990 -0.16011 -0.02345
257.70000 1.51160 0.10304 0.02454
257.80000 1.45552 0.19606 0.05324
257.90000 1.45450 0.06064 0.01743
258.00000 1.49246 -0.08018 -0.04559
258.10000 1.41872 -0.19597 -0.04096
258.20000 1.48397 -0.25145 0.04284
258.30000 1.47348 -0.14464 0.02727
258.40000 1.47679 -0.05393 -0.01889
258.50000 1.44863 -0.02115 -0.00677
258.60000 1.48334 0.10894 -0.00654
258.70000 1.40572 0.08662 -0.02111
258.80000 1.44930 0.04247 0.02817
258.90000 1.51974 -0.05268 0.00628
259.00000 1.49637 -0.10276 -0.01098
259.10000 1.39991 -0.12777 -0.05801
259.20000 1.49327 -0.05395 0.03195
259.30000 1.46682 0.01906 0.06443
259.40000 1.43927 0.05968 0.02119
259.50000 1.42178 -0.04729 -0.07211
259.60000 1.53147 -0.13191 0.01751
259.70000 1.40532 -0.07828 0.04549
259.80000 1.41327 0.01378 -0.00510
259.90000 1.50077 0.15178 -0.03234
260.00000 1.49346 0.21191 -0.00508
260.10000 1.49996 0.26911 -0.03356
260.20000 1.52923 0.15324 0.00634
260.30000 1.47976 0.35149 0.00286
260.40000 1.39573 0.38399 0.03515
260.50000 1.49227 0.18232 -0.04011
260.60000 1.43351 0.04913 0.04813
260.70000 1.46442 0.16844 -0.04274
260.80000 1.46990 0.13801 0.00616
260.90000 1.46693 0.01537 0.02546
261.00000 1.49032 0.12875 0.00738
261.10000 1.46452 0.25583 -0.01420
261.20000 1.38881 0.10120 -0.01474
261.30000 1.45477 -0.07699 -0.00308
261.40000 1.45913 -0.08917 0.00620
261.50000 1.49648 0.02268 -0.01024
261.60000 1.45367 0.11465 -0.00235
261.70000 1.51339 0.20834 0.03389
261.80000 1.42585 0.05865 -0.04387
261.90000 1.43390 -0.02641 0.03042
262.00000 1.45588 -0.03452 0.03777
262.10000 1.54406 -0.19199 -0.02382
262.20000 1.39926 -0.10402 0.01567
262.30000 1.41369 0.10187 0.02175
262.40000 1.52144 0.14506 -0.01692
262.50000 1.46762 0.10349 -0.00460
262.60000 1.44453 0.18466 -0.02195
262.70000 1.45744 0.05716 0.01042
262.80000 1.47381 -0.00651 0.03014
262.90000 1.46502 -0.02245 -0.00887
263.00000 1.47490 -0.06295 -0.05066
263.10000 1.42710 0.01913 0.08521
263.20000 1.43784 0.11360 -0.00182
263.30000 1.47356 0.06879 -0.04253
263.40000 1.45403 0.04719 0.04069
263.50000 1.45547 0.05903 0.02740
263.60000 1.50965 0.12452 -0.02163
263.70000 1.48959 0.22618 -0.02093
263.80000 1.42135 0.16486 0.06441
263.90000 1.51523 0.10508 0.02206
264.00000 1.47918 0.09265 0.00818
264.10000 1.50315 0.08979 0.02077
264.20000 1.46531 0.11803 0.01748
264.30000 1.46004 0.13265 -0.07089
264.40000 1.49180 0.03224 0.03874
264.50000 1.47775 -0.08570 0.01079
264.60000 1.41723 -0.16256 -0.01670
264.70000 1.48576 0.02136 -0.02506
264.80000 1.45900 0.02098 0.01533
264.90000 1.39539 0.04576 0.05646
265.00000 1.43574 -0.13218 -0.01289
265.10000 1.41931 -0.15284 -0.02097
265.20000 1.48368 -0.12501 0.02484
265.30000 1.47350 -0.00269 -0.02298
265.40000 1.50265 0.09353 0.02292
265.50000 1.37113 -0.07828 0.00161
265.60000 1.45413 -0.09641 -0.01652
265.70000 1.51109 0.04500 -0.01742
265.80000 1.44813 0.07556 0.00475
265.90000 1.42924 -0.15023 0.02388
266.00000 1.44102 -0.25833 -0.01279
266.10000 1.38534 -0.14272 -0.02570
266.20000 1.46610 0.11757 -0.00885
266.30000 1.46846 0.17076 -0.01295
266.40000 1.40780 0.16990 -0.03793
266.50000 1.45302 0.09372 0.04684
266.60000 1.43650 0.14954 0.01753
266.70000 1.48842 0.25692 -0.04812
266.80000 1.46296 0.06286 0.01107
266.90000 1.42590 -0.09599 0.00333
267.00000 1.43239 -0.07368 0.02588
267.10000 1.53222 0.12077 -0.01235
267.20000 1.43726 0.07359 -0.02574
267.30000 1.52573 0.13463 0.01937
267.40000 1.49119 0.12948 0.02426
267.50000 1.37685 -0.07161 -0.07203
267.60000 1.48511 -0.27633 0.05407
267.70000 1.52066 -0.09855 -0.02920
267.80000 1.49407 0.08008 0.03878
267.90000 1.48715 -0.01790 -0.04365
268.00000 1.43816 -0.08596 0.00596
268.10000 1.46078 -0.11127 -0.02447
268.20000 1.45005 -0.18854 -0.02766
268.30000 1.43259 -0.23542 0.01982
268.40000 1.52738 -0.16976 -0.05551
268.50000 1.48089 -0.12829 0.00567
268.60000 1.43436 -0.07061 0.03300
268.70000 1.50330 0.04063 -0.04902
268.80000 1.46189 0.13478 -0.02823
268.90000 1.46274 0.19470 -0.01567
269.00000 1.49878 0.11334 0.03727
269.10000 1.45435 -0.09411 0.00061
269.20000 1.43911 -0.15398 -0.06112
269.30000 1.45907 0.05770 -0.02769
269.40000 1.43940 0.20390 -0.00486
269.50000 1.42776 0.19595 -0.03688
269.60000 1.43285 0.17377 0.06359
269.70000 1.50078 -0.18313 -0.03131
269.80000 1.44794 -0.25168 -0.09004
269.90000 1.44640 -0.19413 0.03659
270.00000 1.48364 -0.00777 0.09259
270.10000 1.50842 0.09711 -0.03847
270.20000 1.40595 0.00419 -0.03165
270.30000 1.42315 -0.07058 0.04695
270.40000 1.46041 0.11919 0.02955
270.50000 1.45501 0.32374 0.01624
270.60000 1.44844 0.15807 0.03013
270.70000 1.45798 0.00285 0.03407
270.80000 1.52260 -0.09469 0.00156
270.90000 1.44727 -0.01996 -0.04363
271.00000 1.41366 0.00000 0.06769
271.10000 1.49867 -0.09187 0.05616
271.20000 1.50264 -0.18322 -0.03816
271.30000 1.42817 -0.12382 0.03789
271.40000 1.43636 0.00990 -0.03875
271.50000 1.43543 0.00484 0.00699
271.60000 1.50786 -0.03626 -0.04176
271.70000 1.50302 0.10936 0.04205
271.80000 1.44097 0.13137 0.04789
271.90000 1.38048 0.22256 0.01804
272.00000 1.42323 0.18818 0.03143
272.10000 1.47337 0.20952 -0.00978
272.20000 1.48700 0.22029 -0.00897
272.30000 1.44671 0.06221 0.00755
272.40000 1.39718 -0.00573 0.03174
272.50000 1.50050 0.00270 -0.00476
272.60000 1.51500 0.15879 -0.00886
272.70000 1.41362 0.31580 -0.02701
272.80000 1.40967 0.36653 -0.00293
272.90000 1.43828 0.33541 0.02032
273.00000 1.48232 0.07913 0.01032
273.10000 1.48156 -0.12987 -0.03173
273.20000 1.46081 -0.12390 -0.04140
273.30000 1.43083 -0.13229 0.05220
273.40000 1.48539 -0.06071 0.01226
273.50000 1.46021 0.15458 -0.00998
273.60000 1.45320 0.32247 -0.01018
273.70000 1.46348 0.21923 -0.06313
273.80000 1.52488 0.25666 0.00131
273.90000 1.44929 0.07983 0.05986
274.00000 1.46871 0.07524 -0.01392
274.10000 1.47375 -0.00338 -0.06177
274.20000 1.45341 -0.17225 0.02882
274.30000 1.44145 -0.33185 0.04518
274.40000 1.45415 -0.27635 -0.00626
274.50000 1.54368 -0.14688 0.07596
274.60000 1.43338 -0.03582 -0.02663
274.70000 1.39484 0.00321 0.02014
274.80000 1.46352 0.04016 0.01757
274.90000 1.47837 0.02279 -0.00857
275.00000 1.43676 0.07660 0.04336
275.10000 1.46940 0.05282 -0.01104
275.20000 1.40975 0.02825 0.01613
275.30000 1.45631 -0.07907 -0.01096
275.40000 1.51064 -0.02084 0.00622
275.50000 1.49080 0.13290 -0.01434
275.60000 1.45702 0.10887 0.00523
275.70000 1.45196 0.16193 0.02001
275.80000 1.49724 0.12615 -0.00853
275.90000 1.45706 0.06336 0.01227
276.00000 1.42531 -0.05575 0.04133
276.10000 1.46885 -0.12368 0.00025
276.20000 1.47409 0.02493 -0.01951
276.30000 1.39540 0.12152 -0.04212
276.40000 1.47456 0.29625 0.03434
276.50000 1.48963 0.32817 -0.00153
276.60000 1.46423 0.16166 -0.05473
276.70000 1.44755 -0.03188 -0.02522
276.80000 1.46764 -0.00009 0.05399
276.90000 1.45898 -0.01302 -0.04994
277.00000 1.43131 0.04399 -0.06845
277.10000 1.46921 0.06546 0.05504
277.20000 1.51145 0.11880 0.01460
277.30000 1.46654 0.08318 -0.02804
277.40000 1.42246 -0.18139 -0.03155
277.50000 1.44156 -0.20701 0.06660
277.60000 1.52256 -0.17650 -0.04160
277.70000 1.50879 -0.24742 -0.04771
277.80000 1.47561 -0.13265 0.01189
277.90000 1.47285 0.11361 0.01328
278.00000 1.43615 0.04848 0.00273
278.10000 1.42154 0.11579 0.01384
278.20000 1.50625 0.17008 0.02758
278.30000 1.43436 0.04471 -0.01935
278.40000 1.44118 -0.14444 0.02569
278.50000 1.47631 -0.33062 0.00459
278.60000 1.45595 -0.14234 -0.03318
278.70000 1.48415 -0.08743 0.01003
278.80000 1.54052 0.03678 -0.01714
278.90000 1.48281 -0.15079 -0.03748
279.00000 1.45967 -0.09472 0.03146
279.10000 1.49003 0.18326 0.00794
279.20000 1.46661 0.18415 -0.08647
279.30000 1.46565 -0.03436 0.03398
279.40000 1.47393 -0.01187 0.03697
279.50000 1.45180 0.01663 -0.04023
279.60000 1.48173 0.05131 -0.01988
279.70000 1.43671 0.20488 0.03519
279.80000 1.48963 0.21601 -0.00893
279.90000 1.52595 0.18188 -0.02101
280.00000 1.42491 0.18886 0.04128
280.10000 1.43838 -0.04020 -0.03551
280.20000 1.49767 -0.13504 -0.04234
280.30000 1.48613 0.03460 0.03637
280.40000 1.46116 0.01800 -0.01075
280.50000 1.41222 -0.02892 -0.00862
280.60000 1.51833 -0.01644 0.04069
280.70000 1.50072 -0.03197 -0.00412
280.80000 1.43374 -0.12548 0.02280
280.90000 1.42774 -0.17919 0.00210
281.00000 1.48093 0.00627 -0.03725
281.10000 1.46322 -0.03174 0.01998
281.20000 1.43603 0.00240 -0.01847
281.30000 1.49149 0.03462 0.02001
281.40000 1.46499 -0.24000 0.06440
281.50000 1.42666 -0.39968 -0.04999
281.60000 1.44492 -0.27335 -0.04352
281.70000 1.44592 -0.11894 -0.00623
281.80000 1.51556 0.14307 0.00259
281.90000 1.43619 0.12445 -0.03981
282.00000 1.46204 -0.13161 -0.04401
282.10000 1.41266 -0.17399 -0.00299
282.20000 1.45561 -0.24647 -0.02650
282.30000 1.46182 -0.26422 0.03125
282.40000 1.45173 -0.22157 0.02070
282.50000 1.51332 -0.18465 -0.05133
282.60000 1.39696 -0.15101 0.01855
282.70000 1.49854 -0.05437 -0.00002
282.80000 1.46386 0.01294 0.00070
282.90000 1.47640 -0.10241 0.03312
283.00000 1.44328 -0.21730 -0.03971
283.10000 1.44219 -0.21049 -0.01516
283.20000 1.42822 -0.02449 -0.00229
283.30000 1.45626 -0.00021 0.04319
283.40000 1.54869 0.04349 -0.03762
283.50000 1.45077 -0.06642 -0.04097
283.60000 1.43423 -0.19507 0.07701
283.70000 1.50280 -0.02146 -0.00688
283.80000 1.42883 0.09898 -0.08970
283.90000 1.54277 0.14173 -0.01089
284.00000 1.52439 0.21689 0.07444
284.10000 1.38291 0.28837 -0.00825
284.20000 1.47724 0.08640 -0.01517
284.30000 1.51228 -0.09889 0.02310
284.40000 1.47540 -0.14128 0.01179
284.50000 1.43011 -0.01893 0.01898
284.60000 1.43467 0.15885 -0.01299
284.70000 1.50083 0.18297 0.04179
284.80000 1.42794 0.22473 0.00771
284.90000 1.45468 0.03828 -0.02562
285.00000 1.50226 -0.05081 0.00102
285.10000 1.46221 0.11228 0.02497
285.20000 1.42665 0.12181 0.02680
285.30000 1.46965 0.09580 -0.05733
285.40000 1.44846 0.19072 -0.01814
285.50000 1.49502 0.05703 -0.02292
285.60000 1.45480 0.02669 0.01862
285.70000 1.45117 0.01522 0.04402
285.80000 1.50738 -0.13659 -0.02148
285.90000 1.45708 -0.23786 -0.02597
286.00000 1.42112 -0.28334 -0.00320
286.10000 1.43146 -0.22321 0.01360
286.20000 1.47981 0.06047 -0.00661
286.30000 1.49279 0.20155 -0.01715
286.40000 1.41497 0.08700 -0.02014
286.50000 1.43735 -0.06827 -0.01471
286.60000 1.43561 -0.14128 -0.01560
286.70000 1.48631 -0.15784 -0.00390
286.80000 1.48482 -0.03790 0.00246
286.90000 1.47706 0.03362 0.01700
287.00000 1.44308 0.16656 -0.01151
287.10000 1.46643 0.19961 0.04961
287.20000 1.44970 0.10358 -0.05259
287.30000 1.45114 -0.10047 0.00598
287.40000 1.49579 -0.35485 0.01960
287.50000 1.45743 -0.26020 0.00152
287.60000 1.44013 -0.09757 -0.03949
287.70000 1.51389 -0.03222 -0.01140
287.80000 1.44683 0.07521 0.06819
287.90000 1.46281 0.20627 -0.06837
288.00000 1.43975 0.22760 -0.01152
288.10000 1.52434 0.11665 0.04107
288.20000 1.44276 -0.05232 -0.00358
288.30000 1.48013 -0.09815 -0.02106
288.40000 1.42735 0.00262 0.02155
288.50000 1.50272 0.20310 -0.02062
288.60000 1.46523 0.07460 -0.03073
288.70000 1.47546 -0.15378 0.01567
288.80000 1.48307 -0.07324 -0.00309
288.90000 1.46073 0.16193 0.04278
289.00000 1.45177 0.21794 0.00893
289.10000 1.46409 0.10117 -0.04674
289.20000 1.46864 0.08042 -0.02669
289.30000 1.50139 0.04115 0.01695
289.40000 1.43738 0.01438 -0.01254
289.50000 1.44983 -0.20756 0.00751
289.60000 1.51031 -0.17295 -0.05404
289.70000 1.50748 -0.05871 0.04328
289.80000 1.46764 0.06039 -0.01483
289.90000 1.51721 0.33298 0.03147
290.00000 1.40571 0.29149 0.02333
290.10000 1.47906 0.22647 0.00838
290.20000 1.49331 0.04758 -0.00126
290.30000 1.48847 -0.08734 -0.01184
290.40000 1.50236 0.10171 -0.01413
290.50000 1.42115 0.12330 -0.04856
290.60000 1.49425 0.02454 0.00823
290.70000 1.44495 -0.02673 -0.00141
290.80000 1.42415 -0.00050 0.06111
290.90000 1.50881 0.13049 0.00319
291.00000 1.50434 0.10637 -0.01390
291.10000 1.38290 0.01972 0.04486
291.20000 1.43684 0.18872 -0.00747
291.30000 1.55779 0.34003 -0.02219
291.40000 1.47219 0.24574 -0.04245
291.50000 1.43405 0.01495 0.07083
291.60000 1.43768 -0.16931 0.00747
291.70000 1.43507 -0.23911 -0.01986
291.80000 1.50850 -0.27663 0.04160
291.90000 1.53695 -0.16941 0.01132
292.00000 1.48494 -0.08210 -0.03649
292.10000 1.41174 -0.11742 -0.02772
292.20000 1.47315 -0.04634 0.00545
292.30000 1.47193 0.10317 0.01014
292.40000 1.45167 0.24950 -0.00556
292.50000 1.48874 0.28931 0.01360
292.60000 1.44766 0.00340 0.02427
292.70000 1.48747 -0.29244 -0.02365
292.80000 1.48251 -0.28948 -0.01680
292.90000 1.46551 -0.21676 0.03306
293.00000 1.40660 -0.03999 -0.00145
293.10000 1.47363 0.09258 -0.00368
293.20000 1.47518 -0.12634 -0.00542
293.30000 1.49695 -0.22264 -0.00251
293.40000 1.42490 -0.14584 -0.04337
293.50000 1.47422 0.00852 -0.02225
293.60000 1.48750 0.21637 0.00600
293.70000 1.50057 -0.03724 -0.02803
293.80000 1.47815 -0.36220 0.03977
293.90000 1.43838 -0.35181 0.06543
294.00000 1.55358 -0.14674 -0.04583
294.10000 1.46431 -0.02380 -0.05170
294.20000 1.39645 -0.00997 0.08082
294.30000 1.46145 -0.06788 -0.04077
294.40000 1.53261 -0.12974 -0.01551
294.50000 1.41185 0.08226 -0.05677
294.60000 1.48102 0.07622 -0.00633
294.70000 1.50009 0.08143 0.01011
294.80000 1.45131 -0.05015 0.02765
294.90000 1.42823 0.04460 -0.00649
295.00000 1.47399 -0.02508 0.01594
295.10000 1.44525 -0.16008 0.02177
295.20000 1.41294 -0.19704 -0.00189
295.30000 1.48691 -0.22864 -0.05524
295.40000 1.47530 -0.21924 0.03974
295.50000 1.50986 -0.30971 -0.04812
295.60000 1.47106 -0.22650 0.06418
295.70000 1.38925 -0.16551 -0.01269
295.80000 1.43709 0.04002 0.02394
295.90000 1.50799 0.13445 -0.07899
296.00000 1.50151 -0.01938 0.01477
296.10000 1.43789 0.04027 0.04929
296.20000 1.39892 0.14547 0.05405
296.30000 1.43585 0.19108 -0.04664
296.40000 1.50662 0.01451 -0.00427
296.50000 1.43912 -0.04432 -0.01966
296.60000 1.46257 -0.07699 0.01797
296.70000 1.49209 -0.20625 -0.06695
296.80000 1.49059 -0.18073 0.04618
296.90000 1.45373 -0.09623 0.03103
297.00000 1.44075 0.03414 -0.00908
297.10000 1.42709 0.17577 0.05101
297.20000 1.49581 0.19276 -0.02666
297.30000 1.44927 0.08077 0.00489
297.40000 1.45168 0.02298 0.02119
297.50000 1.45831 -0.07892 0.01604
297.60000 1.41310 -0.21519 -0.02802
297.70000 1.45891 -0.15796 0.03717
297.80000 1.44654 0.06632 -0.00491
297.90000 1.49238 0.11788 -0.06433
298.00000 1.49879 0.11224 -0.03711
298.10000 1.48253 0.13814 0.03332
298.20000 1.42644 0.15300 -0.01408
298.30000 1.46649 0.00628 0.02704
298.40000 1.43965 -0.10869 -0.02104
298.50000 1.49033 -0.23665 0.01404
298.60000 1.42285 -0.20924 0.03261
298.70000 1.48807 -0.04262 0.00832
298.80000 1.45384 -0.04069 -0.04066
298.90000 1.45938 0.16176 0.01093
299.00000 1.52596 0.01587 0.04159
299.10000 1.48551 -0.18417 0.04184
299.20000 1.44611 -0.00642 -0.02831
299.30000 1.44302 -0.00580 -0.04534
299.40000 1.41542 0.03767 0.04065
299.50000 1.40621 0.08804 -0.02244
299.60000 1.49038 0.10313 -0.00078
299.70000 1.49940 0.06820 -0.03913
299.80000 1.48685 -0.00064 0.02554
299.90000 1.41354 0.03616 0.04907
300.00000 1.46741 0.28007 -0.00357
300.10000 1.45668 0.32005 0.03776
300.20000 1.48316 0.29239 -0.04837
300.30000 1.44954 0.13327 0.01947
300.40000 1.46365 -0.03956 -0.01547
300.50000 1.50395 0.10608 -0.04295
300.60000 1.44700 0.12671 0.05738
300.70000 1.51066 -0.01530 -0.04560
300.80000 1.51364 0.06322 -0.01579
300.90000 1.45069 0.15966 0.06064
301.00000 1.42438 0.12725 0.01980
301.10000 1.51098 0.11490 -0.01840
301.20000 1.46916 -0.01859 -0.04440
301.30000 1.37487 -0.10123 -0.02760
301.40000 1.49668 -0.19920 0.08931
301.50000 1.47239 -0.05418 -0.02594
301.60000 1.43886 -0.01095 -0.00577
301.70000 1.44548 -0.02066 0.01406
301.80000 1.50031 -0.05914 -0.01586
301.90000 1.46692 -0.27479 -0.01021
302.00000 1.48247 -0.23936 0.01721
302.10000 1.40620 -0.00101 -0.01286
302.20000 1.45808 0.00571 -0.02548
302.30000 1.53664 -0.05412 -0.02887
302.40000 1.44826 0.03377 0.01927
302.50000 1.43911 0.01830 0.01762
302.60000 1.41632 0.11964 0.01002
302.70000 1.48030 0.05864 -0.02476
302.80000 1.46793 -0.05394 0.00256
302.90000 1.42259 -0.09261 0.00287
303.00000 1.51119 -0.08186 0.01046
303.10000 1.48760 -0.14919 0.02306
303.20000 1.39090 -0.12719 0.02212
303.30000 1.51869 -0.10702 0.08414
303.40000 1.47644 -0.11860 -0.04663
303.50000 1.44555 -0.09293 -0.05765
303.60000 1.43952 -0.20096 0.02641
303.70000 1.39958 -0.19515 0.01425
303.80000 1.48797 -0.20079 -0.01847
303.90000 1.45069 -0.02213 0.02619
304.00000 1.51997 -0.01469 -0.03807
304.10000 1.44184 -0.06015 0.00946
304.20000 1.48262 0.16609 0.05590
304.30000 1.38863 0.16451 -0.01633
304.40000 1.46326 0.10668 -0.02689
304.50000 1.48209 -0.13944 0.00214
304.60000 1.47586 -0.10816 0.04996
304.70000 1.45593 0.07662 -0.09815
304.80000 1.48039 0.11230 -0.02149
304.90000 1.44665 0.02803 0.04376
305.00000 1.44068 -0.08491 -0.02604
305.10000 1.45380 -0.02069 0.01503
305.20000 1.46000 0.00609 -0.01892
305.30000 1.43563 -0.21580 0.03587
305.40000 1.46445 -0.24350 -0.00739
305.50000 1.51569 -0.23696 -0.05536
305.60000 1.44244 -0.15884 0.00006
305.70000 1.46126 0.12160 0.04018
305.80000 1.47669 0.06945 0.01124
305.90000 1.51678 0.08187 0.02716
306.00000 1.45956 -0.00503 -0.02187
306.10000 1.44222 0.20487 0.03498
306.20000 1.48752 0.24721 0.00151
306.30000 1.45488 0.11931 -0.05313
306.40000 1.45530 -0.08110 0.00839
306.50000 1.47266 -0.11130 0.06538
306.60000 1.46614 -0.05618 -0.06537
306.70000 1.45922 0.02579 0.02350
306.80000 1.51852 0.10123 0.02301
306.90000 1.46330 -0.10402 0.03158
307.00000 1.41599 -0.17816 -0.03838
307.10000 1.47313 -0.15609 0.01965
307.20000 1.38987 -0.01781 0.03928
307.30000 1.47313 -0.06487 0.03972
307.40000 1.47444 -0.01201 -0.00752
307.50000 1.45491 0.20553 0.05547
307.60000 1.50030 0.29139 -0.05711
307.70000 1.45651 0.30777 0.00849
307.80000 1.44997 0.20505 0.05497
307.90000 1.44683 0.11935 0.01266
308.00000 1.46639 -0.10639 -0.04501
308.10000 1.51265 -0.12167 -0.06054
308.20000 1.45535 -0.24653 0.09891
308.30000 1.42025 -0.04820 0.02049
308.40000 1.46722 0.15562 -0.08389
308.50000 1.50051 0.15183 0.03791
308.60000 1.44805 0.03925 -0.00715
308.70000 1.47657 0.06015 -0.01219
308.80000 1.41554 -0.05877 0.04279
308.90000 1.45327 -0.26650 -0.01072
309.00000 1.51055 -0.17873 -0.02588
309.10000 1.38502 0.02942 0.00394
309.20000 1.54665 0.16661 0.03517
309.30000 1.45998 0.11401 -0.01549
309.40000 1.40004 0.03274 -0.05612
309.50000 1.45898 -0.02354 0.00416
309.60000 1.46648 -0.11099 0.05067
309.70000 1.47045 -0.08188 -0.05033
309.80000 1.49404 -0.11320 0.00084
309.90000 1.42080 -0.08367 -0.00952
310.00000 1.41142 -0.03539 0.04891
310.10000 1.54707 -0.00890 -0.06891
310.20000 1.50780 0.20020 -0.02680
310.30000 1.41722 0.27619 0.06872
310.40000 1.44650 0.25190 0.00340
310.50000 1.44699 -0.04754 -0.05053
310.60000 1.44755 -0.16364 0.07290
310.70000 1.47333 -0.08434 0.02691
310.80000 1.47828 0.11325 -0.07534
310.90000 1.47489 0.31705 0.02148
311.00000 1.51363 0.16907 -0.01492
311.10000 1.46783 0.03458 0.02181
311.20000 1.44429 0.02842 -0.02612
311.30000 1.44471 -0.05605 -0.01646
311.40000 1.42733 -0.07195 0.03515
311.50000 1.52774 -0.30613 0.04411
311.60000 1.44466 -0.19967 0.00123
311.70000 1.46521 0.07622 0.02098
311.80000 1.47511 0.16969 -0.03768
311.90000 1.46650 0.09983 -0.02987
312.00000 1.43354 0.18214 0.01340
312.10000 1.49246 0.05464 0.03729
312.20000 1.45042 -0.07651 0.01589
312.30000 1.49706 0.10945 -0.00746
312.40000 1.35876 0.13202 0.01400
312.50000 1.45461 0.08974 -0.03113
312.60000 1.47424 0.06591 0.00903
312.70000 1.41201 -0.01440 -0.03424
312.80000 1.42817 -0.14097 -0.05899
312.90000 1.45654 -0.20135 0.04331
313.00000 1.50271 0.01570 0.04897
313.10000 1.41573 0.13833 0.02070
313.20000 1.43999 0.18627 -0.02996
313.30000 1.42218 0.11750 0.07201
313.40000 1.41112 0.02670 -0.03474
313.50000 1.51246 -0.14078 -0.01091
313.60000 1.45503 -0.13907 -0.00047
313.70000 1.44212 -0.05651 0.01513
313.80000 1.49924 -0.03703 0.00184
313.90000 1.48793 -0.10806 -0.02706
314.00000 1.42829 0.13320 -0.01374
314.10000 1.44015 0.16976 0.02780
314.20000 1.49458 0.02839 0.00883
314.30000 1.45719 -0.05655 -0.00562
314.40000 1.45171 0.03966 -0.02101
314.50000 1.52073 0.36559 -0.00252
314.60000 1.47072 0.27054 -0.05423
314.70000 1.43916 0.06886 0.01062
314.80000 1.47217 -0.04283 0.03002
314.90000 1.46376 -0.13717 -0.08132
315.00000 1.45760 0.08202 -0.02910
315.10000 1.51148 0.06666 0.02297
315.20000 1.48108 -0.05312 -0.01037
315.30000 1.45089 -0.03271 -0.01846
315.40000 1.44763 0.12755 0.02192
315.50000 1.46559 0.20450 0.05379
315.60000 1.43521 0.09430 -0.07655
315.70000 1.49358 0.11598 -0.02278
315.80000 1.51280 0.09334 0.01465
315.90000 1.48577 -0.03178 0.00225
316.00000 1.49112 -0.13052 0.00399
316.10000 1.45819 0.08218 0.00630
316.20000 1.40733 0.33163 0.01043
316.30000 1.49649 0.13938 -0.04353
316.40000 1.48471 0.04831 -0.00401
316.50000 1.46002 -0.04198 0.00410
316.60000 1.44952 -0.11949 -0.08755
316.70000 1.48593 -0.10770 -0.01170
316.80000 1.47116 -0.06317 -0.01432
316.90000 1.41994 -0.08610 0.00462
317.00000 1.48398 -0.02322 0.00600
317.10000 1.48080 0.08865 -0.03741
317.20000 1.48876 0.29897 0.07579
317.30000 1.40991 0.23975 -0.06525
317.40000 1.48313 -0.06767 -0.04599
317.50000 1.45102 -0.05516 0.02333
317.60000 1.48946 0.18298 0.00867
317.70000 1.48632 0.22144 -0.01431
317.80000 1.45890 -0.09243 -0.02067
317.90000 1.44915 -0.12625 -0.01626
318.00000 1.49183 0.17000 0.01451
318.10000 1.46290 0.19591 0.01763
318.20000 1.43615 0.09957 0.03870
318.30000 1.48769 -0.02912 -0.04155
318.40000 1.48185 -0.12684 0.05195
318.50000 1.47330 -0.16252 0.00416
318.60000 1.47432 -0.02504 0.00014
318.70000 1.44268 -0.03720 -0.05821
318.80000 1.49168 0.11928 -0.00531
318.90000 1.48548 0.32604 0.06136
319.00000 1.42489 0.32311 -0.06130
319.10000 1.50383 0.23544 0.00928
319.20000 1.49564 0.02894 0.01823
319.30000 1.47858 -0.16622 -0.04330
319.40000 1.45410 -0.16103 -0.06710
319.50000 1.42794 -0.06089 -0.03666
319.60000 1.50565 -0.00090 0.01781
319.70000 1.47739 -0.03382 0.01545
319.80000 1.42738 0.01114 -0.05320
319.90000 1.48304 0.06595 0.06885
320.00000 1.48551 0.16398 -0.00603
320.10000 1.46162 -0.01913 -0.07774
320.20000 1.41983 -0.26362 -0.06355
320.30000 1.52122 -0.22223 0.02501
320.40000 1.47654 -0.03295 0.02703
320.50000 1.41539 0.12979 -0.05514
320.60000 1.42831 0.09170 0.01854
320.70000 1.54316 -0.11156 0.02465
320.80000 1.42086 -0.19322 -0.01670
320.90000 1.44587 -0.08618 0.02921
321.00000 1.47882 -0.15092 0.00815
321.10000 1.44514 -0.12877 -0.01807
321.20000 1.44609 0.11807 0.02657
321.30000 1.48031 0.10148 -0.00157
321.40000 1.55481 -0.02813 -0.00368
321.50000 1.41086 -0.03927 0.03111
321.60000 1.40398 0.07846 0.00933
321.70000 1.52319 0.24379 -0.02189
321.80000 1.51468 0.34809 -0.04871
321.90000 1.44919 0.22099 -0.01342
322.00000 1.42168 0.07210 0.03502
322.10000 1.48909 0.01430 -0.03653
322.20000 1.43176 -0.15808 0.02350
322.30000 1.47911 -0.25918 0.00366
322.40000 1.49821 0.06123 -0.03946
322.50000 1.46961 0.36019 -0.02984
322.60000 1.42337 0.36055 -0.02165
322.70000 1.46356 0.25795 0.01193
322.80000 1.44032 0.26345 -0.03412
322.90000 1.50825 0.11801 0.01339
323.00000 1.45104 0.06469 -0.00513
323.10000 1.47601 -0.00343 -0.01323
323.20000 1.50444 0.01173 -0.02678
323.30000 1.44191 0.01491 -0.01147
323.40000 1.47480 0.26864 0.02479
323.50000 1.53328 0.36917 0.02949
323.60000 1.41375 0.30812 0.01046
323.70000 1.45237 0.00601 -0.03478
323.80000 1.50001 -0.04950 0.01409
323.90000 1.56671 -0.03706 0.06778
324.00000 1.51262 0.12908 -0.05088
324.10000 1.40195 0.00410 -0.03220
324.20000 1.44714 -0.01081 -0.02474
324.30000 1.56182 0.03418 -0.02106
324.40000 1.39171 -0.09423 -0.08028
324.50000 1.38916 -0.03247 0.05968
324.60000 1.53126 -0.08115 0.03776
324.70000 1.45214 0.01657 -0.00998
324.80000 1.51039 -0.06688 -0.00093
324.90000 1.45373 -0.17249 -0.00904
325.00000 1.44845 -0.10697 -0.00273
325.10000 1.45559 0.00241 0.04620
325.20000 1.46813 0.14397 -0.06622
325.30000 1.50795 0.18937 0.05231
325.40000 1.47477 0.17087 0.01572
325.50000 1.37698 0.02781 -0.03390
325.60000 1.43795 0.03469 0.02732
325.70000 1.51696 0.01239 -0.01564
325.80000 1.44811 -0.16046 0.06603
325.90000 1.38788 -0.28120 -0.00125
326.00000 1.54510 -0.14116 0.03340
326.10000 1.51573 0.07154 -0.00503
326.20000 1.41760 0.27666 -0.01543
326.30000 1.44260 0.10799 -0.03203
326.40000 1.44226 -0.09484 0.04913
326.50000 1.53988 -0.20600 -0.03713
326.60000 1.47686 -0.12986 0.04149
326.70000 1.44885 0.09989 0.03881
326.80000 1.47804 0.28332 -0.01148
326.90000 1.48954 0.11743 -0.03081
327.00000 1.44639 -0.06138 0.04115
327.10000 1.49068 -0.29725 0.01398
327.20000 1.43865 -0.19786 -0.04208
327.30000 1.44315 -0.07541 -0.00702
327.40000 1.43575 0.06387 0.07026
327.50000 1.41432 0.18711 -0.01931
327.60000 1.48984 -0.02880 -0.00915
327.70000 1.45477 -0.30795 0.05906
327.80000 1.49849 -0.35912 -0.05848
327.90000 1.42819 -0.19084 0.03173
328.00000 1.49264 -0.20084 0.01804
328.10000 1.52056 -0.24389 0.00342
328.20000 1.45884 -0.32418 0.01314
328.30000 1.47530 -0.15939 0.02248
328.40000 1.48447 -0.19289 0.00274
328.50000 1.48675 -0.03561 -0.02335
328.60000 1.46693 -0.06914 0.03409
328.70000 1.47094 -0.30547 0.00722
328.80000 1.45580 -0.28079 -0.01602
328.90000 1.47960 -0.08307 0.03457
329.00000 1.51863 0.08469 -0.05231
329.10000 1.50583 0.00900 -0.06259
329.20000 1.44770 -0.13359 0.04269
329.30000 1.42189 -0.02684 -0.02702
329.40000 1.51214 -0.03034 0.04584
329.50000 1.49096 -0.01393 -0.04830
329.60000 1.45424 0.09191 -0.02688
329.70000 1.42487 0.26996 0.01453
329.80000 1.46387 0.15869 0.04405
329.90000 1.52669 -0.13077 -0.01214
330.00000 1.44295 -0.15767 0.04699
330.10000 1.50935 -0.00910 -0.01783
330.20000 1.46525 -0.01572 0.01143
330.30000 1.47394 0.14418 -0.04958
330.40000 1.49035 0.17983 0.01355
330.50000 1.44942 -0.00079 0.03166
330.60000 1.45471 -0.20266 0.00239
330.70000 1.48920 -0.43208 0.04774
330.80000 1.52530 -0.35423 -0.01362
330.90000 1.46381 -0.26703 -0.05535
331.00000 1.40874 0.02739 -0.00911
331.10000 1.44058 0.17828 -0.01818
331.20000 1.41527 0.28909 0.03626
331.30000 1.49485 -0.01523 -0.01384
331.40000 1.43629 -0.11771 -0.03475
331.50000 1.43235 -0.01388 0.05885
331.60000 1.44464 0.14784 -0.03164
331.70000 1.43526 -0.07450 0.00746
331.80000 1.48558 -0.17653 0.03251
331.90000 1.42819 -0.19611 0.01614
332.00000 1.46346 -0.18564 0.02314
332.10000 1.51279 -0.07563 -0.04074
332.20000 1.44912 -0.03773 0.01355
332.30000 1.43220 0.08778 0.01544
332.40000 1.41270 -0.09386 -0.02484
332.50000 1.53417 0.01604 -0.00079
332.60000 1.44764 0.00879 -0.05454
332.70000 1.38936 0.05104 0.03054
332.80000 1.51534 -0.01677 0.05304
332.90000 1.44803 0.10434 -0.06866
333.00000 1.47936 0.04905 -0.00084
333.10000 1.49035 -0.06322 0.02146
333.20000 1.40339 0.05904 -0.03351
333.30000 1.52009 0.08091 -0.02444
333.40000 1.45521 0.00889 0.00624
333.50000 1.46310 0.13504 0.03342
333.60000 1.45252 0.16320 0.04746
333.70000 1.43129 0.12605 -0.03893
333.80000 1.45756 0.04080 -0.02752
333.90000 1.42988 -0.15238 0.04453
334.00000 1.49437 -0.30274 -0.00394
334.10000 1.46620 -0.20523 -0.09719
334.20000 1.43196 -0.07151 -0.01639
334.30000 1.43141 -0.06591 0.01187
334.40000 1.49692 0.08970 -0.00315
334.50000 1.49310 0.27221 0.03662
334.60000 1.41164 0.11764 -0.07664
334.70000 1.44839 0.01867 0.01845
334.80000 1.50534 0.07074 0.05315
334.90000 1.46632 -0.13043 0.00313
335.00000 1.46756 -0.19078 0.00777
335.10000 1.43156 -0.12785 -0.00587
335.20000 1.52622 0.19219 0.01335
335.30000 1.45074 0.44431 0.02437
335.40000 1.49016 0.53533 -0.03783
335.50000 1.45076 0.51325 -0.01671
335.60000 1.44390 -0.01337 0.06251
335.70000 1.45795 -0.19550 -0.05274
335.80000 1.48826 -0.10562 -0.03785
335.90000 1.45333 -0.09799 0.00319
336.00000 1.47362 -0.02183 0.01410
336.10000 1.47152 0.11461 0.03370
336.20000 1.51170 -0.01798 0.01103
336.30000 1.44303 -0.16619 0.01990
336.40000 1.49368 -0.14400 -0.00880
336.50000 1.45396 -0.05487 -0.05183
336.60000 1.48302 0.06056 -0.03931
336.70000 1.48386 0.01090 0.03199
336.80000 1.46536 0.01717 0.04456
336.90000 1.53784 0.04980 -0.01686
337.00000 1.41295 -0.06369 -0.00174
337.10000 1.49312 -0.13026 -0.00727
337.20000 1.47355 -0.13684 -0.04242
337.30000 1.46087 -0.27776 -0.05770
337.40000 1.40681 -0.15193 0.05727
337.50000 1.50717 0.15061 0.01020
337.60000 1.47046 0.25414 -0.02332
337.70000 1.51518 0.27282 0.05054
337.80000 1.41361 0.10561 0.03976
337.90000 1.50089 0.01354 -0.03594
338.00000 1.51384 -0.04425 0.05517
338.10000 1.42882 0.06371 -0.00633
338.20000 1.41212 0.15569 -0.03996
338.30000 1.46257 0.09861 0.05703
338.40000 1.50693 0.12405 0.00894
338.50000 1.49890 -0.00809 -0.01472
338.60000 1.40267 -0.06925 0.00333
338.70000 1.46239 -0.04497 0.04055
338.80000 1.42567 -0.04941 -0.02599
338.90000 1.45858 -0.07677 -0.02615
339.00000 1.41885 0.21377 0.05226
339.10000 1.52228 0.41837 -0.03660
339.20000 1.43220 0.28913 -0.00374
339.30000 1.47737 0.08654 0.06732
339.40000 1.47163 0.10506 -0.00232
339.50000 1.41115 0.18725 -0.09390
339.60000 1.51223 -0.08798 0.02486
339.70000 1.48233 -0.20066 0.02859
339.80000 1.44240 -0.08377 -0.04857
339.90000 1.46481 0.24857 0.00988
340.00000 1.48383 0.09518 -0.03467
340.10000 1.50145 0.04531 0.00236
340.20000 1.43638 0.17071 0.02662
340.30000 1.46376 0.11233 0.00248
340.40000 1.49618 -0.06304 -0.01784
340.50000 1.45166 -0.10852 0.05479
340.60000 1.45490 -0.01742 -0.02802
340.70000 1.49034 -0.15345 0.01927
340.80000 1.48937 -0.05467 -0.02455
340.90000 1.45156 -0.04580 0.00632
341.00000 1.41956 -0.09660 0.00459
341.10000 1.50052 -0.07285 -0.03132
341.20000 1.54579 -0.00813 0.01107
341.30000 1.38953 0.13434 0.02060
341.40000 1.49153 0.03298 -0.08293
341.50000 1.51247 0.11671 0.03397
341.60000 1.48067 0.16226 0.02428
341.70000 1.45970 0.17631 -0.08093
341.80000 1.46066 0.04802 0.03453
341.90000 1.50982 -0.01946 0.06561
342.00000 1.40525 -0.23723 -0.04204
342.10000 1.41923 0.06565 0.00617
342.20000 1.44115 0.44317 0.04685
342.30000 1.49610 0.54704 0.00109
342.40000 1.45469 0.26147 -0.02931
342.50000 1.48253 0.01800 0.00177
342.60000 1.47466 -0.43296 0.07101
342.70000 1.44704 -0.45390 -0.01267
342.80000 1.40830 -0.40828 -0.06916
342.90000 1.56924 -0.31720 0.02247
343.00000 1.48097 -0.12890 0.02844
343.10000 1.44862 -0.12200 -0.04778
343.20000 1.46325 -0.10834 0.00352
343.30000 1.44086 -0.06421 0.06789
343.40000 1.43315 0.16925 0.02033
343.50000 1.49970 0.33359 0.02456
343.60000 1.39878 0.37954 0.04175
343.70000 1.47343 0.17078 0.00704
343.80000 1.48779 0.01950 -0.01996
343.90000 1.41210 -0.13601 -0.00882
344.00000 1.50642 -0.13475 -0.01313
344.10000 1.48503 0.03577 0.00879
344.20000 1.45643 0.17805 -0.02036
344.30000 1.43873 0.24470 -0.01857
344.40000 1.44166 0.23154 -0.01529
344.50000 1.48516 0.11391 -0.02494
344.60000 1.43177 -0.12772 0.06720
344.70000 1.47784 0.03278 -0.05182
344.80000 1.50055 0.00206 -0.02652
344.90000 1.44106 0.03681 0.04600
345.00000 1.43840 0.10387 0.03205
345.10000 1.48095 0.27146 -0.06406
345.20000 1.46862 0.14303 0.00272
345.30000 1.48137 -0.13872 -0.01320
345.40000 1.45622 0.04076 -0.00139
345.50000 1.45904 0.02606 -0.00639
345.60000 1.53552 -0.00254 0.00321
345.70000 1.47351 0.06636 0.00937
345.80000 1.40165 0.01757 0.04699
345.90000 1.49868 -0.15480 0.01180
346.00000 1.49423 -0.18098 0.00761
346.10000 1.44202 0.15212 0.02548
346.20000 1.48374 0.32135 -0.08261
346.30000 1.44694 0.11110 -0.00677
346.40000 1.50874 -0.24721 -0.01802
346.50000 1.45203 -0.27856 0.01460
346.60000 1.46056 -0.09302 -0.00921
346.70000 1.38542 0.11400 0.00433
346.80000 1.48276 0.22709 -0.00762
346.90000 1.46987 0.24291 -0.01409
347.00000 1.44186 0.16368 -0.01985
347.10000 1.47725 0.19506 0.04018
347.20000 1.45206 0.11781 -0.01516
347.30000 1.43166 0.10968 -0.01436
347.40000 1.44559 -0.09859 0.00068
347.50000 1.47981 -0.09980 0.02532
347.60000 1.45432 -0.21084 -0.01017
347.70000 1.49132 -0.09958 0.02937
347.80000 1.41945 0.12049 -0.05108
347.90000 1.50293 0.15246 -0.00838
348.00000 1.45871 0.10147 0.01774
348.10000 1.41393 0.03432 0.01188
348.20000 1.53472 0.08115 0.00488
348.30000 1.46924 -0.01734 -0.08672
348.40000 1.44548 -0.05167 -0.02156
348.50000 1.43270 -0.09150 0.04189
348.60000 1.40845 -0.14268 -0.04182
348.70000 1.48858 -0.15670 -0.00829
348.80000 1.50638 -0.00566 0.08893
348.90000 1.41385 0.04529 -0.02780
349.00000 1.47076 -0.01546 -0.02382
349.10000 1.49678 -0.11895 0.04349
349.20000 1.46250 0.03514 0.03006
349.30000 1.42118 0.22885 -0.00630
349.40000 1.47922 0.34425 0.07018
349.50000 1.52139 0.30582 -0.01856
349.60000 1.43180 0.02431 -0.06888
349.70000 1.44978 -0.00211 0.02940
349.80000 1.45644 -0.00824 -0.00217
349.90000 1.44502 0.08972 0.00446
350.00000 1.47475 -0.00518 0.07510
350.10000 1.50808 -0.04832 0.00527
350.20000 1.41312 -0.07705 -0.02729
350.30000 1.38661 0.10334 -0.00054
350.40000 1.56239 0.05841 -0.01373
350.50000 1.49425 -0.03659 0.02872
350.60000 1.38060 -0.19407 0.01734
350.70000 1.45452 -0.14523 0.01366
350.80000 1.56148 0.06352 0.01539
350.90000 1.49925 0.00585 -0.00460
351.00000 1.39317 -0.23133 0.00036
351.10000 1.49645 -0.22066 0.00905
351.20000 1.43442 -0.06083 -0.00540
351.30000 1.49043 0.09356 0.00496
351.40000 1.51825 0.05393 0.00601
351.50000 1.48954 0.07624 -0.00122
351.60000 1.46072 0.01384 0.04718
351.70000 1.41375 -0.08602 -0.01949
351.80000 1.50454 -0.25687 -0.00704
351.90000 1.47427 -0.14722 -0.02301
352.00000 1.47303 -0.12673 0.01096
352.10000 1.49337 -0.11705 0.00062
352.20000 1.48551 -0.04495 0.00835
352.30000 1.45183 -0.02749 -0.00954
352.40000 1.47173 -0.11700 0.02056
352.50000 1.49736 -0.01867 -0.03306
352.60000 1.43183 0.06301 0.01342
352.70000 1.45681 -0.17380 -0.02101
352.80000 1.48728 -0.33591 0.03374
352.90000 1.48084 -0.37730 0.00376
353.00000 1.42451 -0.38613 -0.00003
353.10000 1.47025 -0.25412 -0.00099
353.20000 1.44950 -0.05912 0.05389
353.30000 1.45045 -0.20825 -0.01670
353.40000 1.48656 -0.37004 -0.07391
353.50000 1.51138 -0.29275 0.06365
353.60000 1.44794 -0.09879 -0.00456
353.70000 1.46733 -0.06831 -0.00427
353.80000 1.44450 -0.04285 0.02818
353.90000 1.44309 -0.01543 -0.07407
354.00000 1.48650 -0.07577 0.04898
354.10000 1.48625 -0.03411 0.02352
354.20000 1.50001 -0.16262 0.02824
354.30000 1.42870 0.01349 -0.06615
354.40000 1.41788 0.19480 -0.02488
354.50000 1.44843 0.19265 -0.01466
354.60000 1.52454 0.14272 0.00992
354.70000 1.49259 0.13771 -0.07977
354.80000 1.44210 0.19099 0.00139
354.90000 1.45163 0.27300 0.02012
355.00000 1.42593 0.22359 -0.03663
355.10000 1.42017 0.18873 -0.01862
355.20000 1.46922 0.01495 0.00135
355.30000 1.45186 -0.02577 0.07303
355.40000 1.43988 0.19206 0.02049
355.50000 1.48255 0.23895 -0.10765
355.60000 1.49763 0.17760 0.02984
355.70000 1.43483 0.24847 0.05849
355.80000 1.44451 0.33283 0.00271
355.90000 1.50588 0.26972 0.04291
356.00000 1.43140 0.16292 0.02632
356.10000 1.45427 0.19025 -0.07119
356.20000 1.48344 0.12191 0.05753
356.30000 1.51538 0.17270 0.05798
356.40000 1.47529 0.15384 0.00185
356.50000 1.47945 0.14572 -0.06062
356.60000 1.46875 -0.05787 -0.04822
356.70000 1.40093 -0.12759 -0.03061
356.80000 1.50348 0.05329 -0.04420
356.90000 1.50350 0.22332 0.00846
357.00000 1.41582 0.27212 0.01783
357.10000 1.47088 0.29114 -0.05063
357.20000 1.52242 0.11778 0.04165
357.30000 1.47303 0.00627 0.00744
357.40000 1.42833 -0.08025 -0.03539
357.50000 1.53145 -0.15340 -0.02666
357.60000 1.51071 -0.04118 0.07038
357.70000 1.48541 0.15592 0.05421
357.80000 1.37729 0.32123 -0.06261
357.90000 1.47226 0.03189 -0.06219
358.00000 1.58660 -0.20692 -0.04443
358.10000 1.45794 -0.09862 0.10895
358.20000 1.47195 -0.09487 -0.01848
358.30000 1.46446 -0.06879 0.03487
358.40000 1.46262 0.07988 -0.00048
358.50000 1.45567 -0.13888 -0.01544
358.60000 1.49067 -0.11108 -0.00596
358.70000 1.45798 0.05093 0.00372
358.80000 1.42760 0.08410 -0.04194
358.90000 1.48829 0.00997 0.02423
359.00000 1.48249 0.03520 -0.00064
359.10000 1.43709 -0.06793 0.01148
359.20000 1.45917 -0.12174 0.01595
359.30000 1.43014 -0.21646 -0.04041
359.40000 1.44070 -0.24816 0.01932
359.50000 1.42110 -0.10805 -0.01542
359.60000 1.49610 0.07541 -0.04886
359.70000 1.46533 0.11873 0.03404
359.80000 1.41102 0.15964 -0.01616
359.90000 1.48284 0.26477 0.06919
360.00000 1.49896 0.42141 -0.03785
360.10000 1.44241 0.25581 0.02512
360.20000 1.46989 -0.08082 -0.00110
360.30000 1.44450 -0.19342 -0.05714
360.40000 1.48045 -0.21015 0.00776
360.50000 1.46170 -0.13361 0.01657
360.60000 1.46794 0.01492 -0.01131
360.70000 1.42971 0.12813 -0.05403
360.80000 1.46091 0.24494 -0.05770
360.90000 1.45873 0.10504 0.04900
361.00000 1.49300 -0.02781 0.05421
361.10000 1.47691 -0.29731 -0.07177
361.20000 1.43984 -0.22954 -0.04163
361.30000 1.44303 -0.05156 0.00902
361.40000 1.50301 0.05952 0.00723
361.50000 1.43283 0.06919 0.00450
361.60000 1.50312 0.08661 0.01194
361.70000 1.46573 -0.15605 -0.02267
361.80000 1.47708 -0.10706 -0.01058
361.90000 1.42046 0.04470 0.03240
362.00000 1.47603 0.10850 0.03224
362.10000 1.43548 -0.09076 -0.06708
362.20000 1.48778 -0.13788 0.05290
362.30000 1.47274 -0.09984 0.00144
362.40000 1.41168 0.17228 -0.05012
362.50000 1.48061 0.20181 0.05596
362.60000 1.43198 0.04875 -0.00193
362.70000 1.49853 -0.05719 -0.01373
362.80000 1.49785 -0.12009 0.00331
362.90000 1.41961 -0.07957 -0.01485
363.00000 1.42748 -0.06194 -0.01908
363.10000 1.50898 0.01329 -0.04303
363.20000 1.42794 0.19634 -0.00150
363.30000 1.44886 0.31960 0.00443
363.40000 1.42707 0.36553 0.00775
363.50000 1.51612 0.16540 -0.03354
363.60000 1.48218 0.05165 0.04344
363.70000 1.43807 -0.00923 0.01594
363.80000 1.50205 -0.12361 0.00322
363.90000 1.46616 -0.18191 -0.01185
364.00000 1.41384 -0.17154 -0.01073
364.10000 1.47973 -0.05427 0.00558
364.20000 1.48611 0.00957 -0.03341
364.30000 1.44033 0.04882 0.00170
364.40000 1.43559 0.04499 -0.00279
364.50000 1.45077 -0.10602 0.00804
364.60000 1.43134 -0.02834 -0.09082
364.70000 1.52734 0.04687 -0.01866
364.80000 1.48021 0.00509 0.06709
364.90000 1.46372 -0.04026 -0.09223
365.00000 1.44522 -0.01483 -0.05553
365.10000 1.50494 0.17930 0.03726
365.20000 1.41847 0.22125 0.00863
365.30000 1.43036 0.22331 -0.01052
365.40000 1.49306 -0.04896 -0.05247
365.50000 1.47002 -0.29546 0.06342
365.60000 1.47399 -0.15650 0.04338
365.70000 1.50723 -0.01417 -0.02977
365.80000 1.43716 0.09918 0.00884
365.90000 1.50135 0.17422 -0.06223
366.00000 1.42563 0.11341 0.02301
366.10000 1.44547 0.14336 0.07847
366.20000 1.53217 0.11876 -0.03732
366.30000 1.40249 0.14411 0.00002
366.40000 1.44498 0.12582 0.05288
366.50000 1.44760 -0.03133 0.01733
366.60000 1.44958 0.01959 -0.03691
366.70000 1.49530 0.25773 0.01964
366.80000 1.48412 0.34978 0.00921
366.90000 1.45516 0.13550 0.02096
367.00000 1.45975 -0.13044 0.00301
367.10000 1.45519 -0.07386 -0.05191
367.20000 1.48267 0.01020 0.00292
367.30000 1.39133 0.07709 0.01305
367.40000 1.44560 0.02219 -0.02556
367.50000 1.49362 -0.13145 0.00464
367.60000 1.51979 -0.22833 0.02662
367.70000 1.43770 -0.23608 -0.05626
367.80000 1.44358 -0.12902 -0.01716
367.90000 1.50739 0.11186 -0.00927
368.00000 1.45252 0.15732 -0.02094
368.10000 1.46029 0.12625 0.02930
368.20000 1.52399 -0.08236 -0.02205
368.30000 1.48594 -0.25400 0.01432
368.40000 1.44038 -0.21169 -0.00770
368.50000 1.46674 -0.07804 -0.01782
368.60000 1.41806 -0.03052 -0.04812
368.70000 1.50281 0.06015 -0.02237
368.80000 1.45777 0.01735 0.03519
368.90000 1.52886 0.03146 -0.00093
369.00000 1.50359 0.22840 0.02180
369.10000 1.44036 0.29931 -0.04234
369.20000 1.48124 0.05980 -0.00255
369.30000 1.45898 -0.25123 0.02154
369.40000 1.48799 -0.28496 0.00271
369.50000 1.48144 -0.14108 0.00882
369.60000 1.47314 -0.00326 -0.05223
369.70000 1.40778 0.30979 0.03846
369.80000 1.50473 0.40653 0.00847
369.90000 1.46048 0.21931 -0.03430
370.00000 1.40658 -0.06637 0.06925
370.10000 1.48176 -0.02636 -0.00301
370.20000 1.43597 -0.03895 -0.00177
370.30000 1.43035 -0.19765 0.05818
370.40000 1.53841 -0.37662 0.04649
370.50000 1.42867 -0.16727 -0.00846
370.60000 1.39301 0.01850 -0.04396
370.70000 1.48171 0.14046 -0.02384
370.80000 1.45803 0.05688 -0.03236
370.90000 1.45851 -0.03977 -0.02311
371.00000 1.49684 -0.10577 -0.01321
371.10000 1.42697 -0.26926 0.05023
371.20000 1.44936 -0.35114 0.00565
371.30000 1.48984 -0.37092 -0.07643
371.40000 1.47655 -0.20503 -0.01392
371.50000 1.42565 0.03856 -0.02688
371.60000 1.44580 -0.08001 0.01331
371.70000 1.46472 0.02307 0.04294
371.80000 1.48205 0.24388 -0.03201
371.90000 1.41817 0.34487 0.03371
372.00000 1.50711 0.36510 -0.00106
372.10000 1.44813 0.30853 -0.05119
372.20000 1.44669 0.06250 -0.01656
372.30000 1.53200 0.05037 0.05721
372.40000 1.45401 0.01308 -0.02760
372.50000 1.48820 -0.18253 -0.01474
372.60000 1.46662 -0.33709 -0.01006
372.70000 1.49326 -0.37427 0.00747
372.80000 1.45524 -0.17203 0.00238
372.90000 1.47669 -0.10287 -0.06985
373.00000 1.47131 -0.02415 0.03604
373.10000 1.44725 0.13663 -0.00132
373.20000 1.45441 0.36623 -0.01006
373.30000 1.45972 0.37900 -0.02245
373.40000 1.44570 0.19190 -0.01292
373.50000 1.41327 0.02651 0.04316
373.60000 1.44776 -0.02350 -0.01345
373.70000 1.45182 -0.07026 -0.04275
373.80000 1.45404 -0.26086 0.01364
373.90000 1.44841 -0.26789 0.01122
374.00000 1.45112 -0.00080 -0.07483
374.10000 1.46612 0.14602 0.11518
374.20000 1.40463 0.11155 -0.06128
374.30000 1.47964 0.08986 -0.02113
374.40000 1.47750 -0.03276 -0.01656
374.50000 1.46296 -0.00692 0.04496
374.60000 1.49100 0.05603 -0.01293
374.70000 1.41652 0.21066 0.00727
374.80000 1.43032 0.18069 -0.01038
374.90000 1.42549 0.22221 -0.02408
375.00000 1.49150 0.00473 0.01089
375.10000 1.49548 -0.00672 0.02506
375.20000 1.44607 -0.00490 -0.01416
375.30000 1.43628 0.00899 0.01859
375.40000 1.45299 0.00395 -0.03666
375.50000 1.45374 -0.05014 -0.00528
375.60000 1.42015 -0.19871 0.03806
375.70000 1.52510 -0.19308 -0.02308
375.80000 1.46537 -0.22037 0.00963
375.90000 1.47981 0.05107 0.03042
376.00000 1.47148 0.39520 -0.02325
376.10000 1.47468 0.62385 0.05809
376.20000 1.44255 0.33423 -0.03353
376.30000 1.38542 0.01734 -0.05126
376.40000 1.46241 -0.13046 0.02323
376.50000 1.52430 -0.16588 -0.01293
376.60000 1.43017 -0.11489 0.01523
376.70000 1.44831 -0.14098 -0.02250
376.80000 1.50255 -0.02711 -0.00111
376.90000 1.55273 -0.05799 0.04539
377.00000 1.45817 -0.22444 -0.01662
377.10000 1.47986 -0.31499 -0.02978
377.20000 1.39818 -0.26888 0.09579
377.30000 1.40716 -0.13127 -0.00503
377.40000 1.50537 0.06324 -0.05777
377.50000 1.46871 0.02742 -0.07886
377.60000 1.45554 -0.03519 -0.04405
377.70000 1.45742 -0.01836 0.00622
377.80000 1.49130 0.01391 -0.02366
377.90000 1.42951 -0.02208 0.04009
378.00000 1.46355 0.22078 0.00969
378.10000 1.47717 0.39361 0.02490
378.20000 1.50773 0.37196 -0.02128
378.30000 1.46879 0.18927 0.01226
378.40000 1.45009 0.08024 -0.05285
378.50000 1.49915 0.02432 0.03367
378.60000 1.37494 0.01798 -0.02876
378.70000 1.44793 -0.12250 -0.00471
378.80000 1.54679 -0.00112 0.08817
378.90000 1.38964 0.00880 -0.01023
379.00000 1.43071 -0.14550 -0.04208
379.10000 1.56392 -0.16772 0.03318
379.20000 1.47108 -0.06604 -0.00580
379.30000 1.43694 0.14345 -0.02124
379.40000 1.43618 0.23618 0.01347
379.50000 1.49469 0.07110 -0.01551
379.60000 1.45042 0.21062 -0.00281
379.70000 1.41859 0.18909 -0.00090
379.80000 1.50642 0.28129 -0.01296
379.90000 1.43309 0.31327 0.01265
380.00000 1.42675 0.31669 -0.02916
380.10000 1.43516 0.30029 -0.06998
380.20000 1.51281 0.20715 0.01059
380.30000 1.44925 0.22536 0.04199
380.40000 1.41321 0.13816 -0.03682
380.50000 1.45012 -0.03637 -0.00639
380.60000 1.48358 -0.06099 0.02867
380.70000 1.42921 0.08029 -0.05399
380.80000 1.45119 0.30727 -0.03171
380.90000 1.47725 0.16134 -0.02180
381.00000 1.46006 -0.01101 0.01621
381.10000 1.44712 -0.15310 -0.01163
381.20000 1.51199 -0.05179 -0.08007
381.30000 1.47919 -0.00181 -0.00525
381.40000 1.38643 0.11882 -0.02304
381.50000 1.38787 0.06404 -0.03375
381.60000 1.50091 0.17346 0.00634
381.70000 1.39729 0.28971 -0.01337
381.80000 1.43884 0.13998 -0.01297
381.90000 1.49180 0.07206 0.09123
382.00000 1.44699 -0.09637 0.03833
382.10000 1.49152 -0.18782 -0.00140
382.20000 1.45695 -0.21800 -0.00477
382.30000 1.47947 -0.15888 -0.05760
382.40000 1.46825 0.02241 0.03079
382.50000 1.41563 0.11915 0.00588
382.60000 1.43322 0.23810 -0.05541
382.70000 1.51384 0.22083 -0.06540
382.80000 1.45576 0.21379 -0.03757
382.90000 1.40771 0.12918 0.08769
383.00000 1.43782 -0.02693 0.01389
383.10000 1.53552 -0.14723 -0.07690
383.20000 1.38246 -0.17730 0.01796
383.30000 1.42483 -0.27645 0.12035
383.40000 1.48429 -0.11356 -0.06885
383.50000 1.41650 0.04253 -0.00648
383.60000 1.44283 0.27227 0.01863
383.70000 1.42383 0.08945 -0.00243
383.80000 1.45098 0.10097 -0.01288
383.90000 1.51467 0.28908 0.06207
384.00000 1.46457 0.37784 -0.05434
384.10000 1.47119 0.22959 -0.00681
384.20000 1.50344 0.09414 0.05280
384.30000 1.47653 0.09094 -0.00863
384.40000 1.40662 0.09043 0.03078
384.50000 1.49097 0.06644 -0.02057
384.60000 1.48745 0.08382 0.00146
384.70000 1.47870 0.35897 -0.02912
384.80000 1.39778 0.37671 -0.01226
384.90000 1.47672 0.30964 0.07870
385.00000 1.44737 0.09047 -0.01198
385.10000 1.47542 -0.32256 -0.05342
385.20000 1.39784 -0.47107 0.05342
385.30000 1.43021 -0.12818 -0.02911
385.40000 1.52531 0.12128 -0.01261
385.50000 1.44942 0.12214 0.04249
385.60000 1.43599 -0.00381 0.04633
385.70000 1.45984 0.02702 0.01467
385.80000 1.46763 -0.05539 -0.05109
385.90000 1.46868 -0.19100 0.01193
386.00000 1.43292 -0.07224 -0.00851
386.10000 1.47650 0.02593 0.02178
386.20000 1.47197 0.02466 0.04195
386.30000 1.48980 -0.17944 -0.01049
386.40000 1.41344 -0.07130 0.03608
386.50000 1.42033 -0.02895 -0.00387
386.60000 1.48995 -0.03401 -0.01141
386.70000 1.48348 0.00747 -0.03881
386.80000 1.47469 0.08765 0.01052
386.90000 1.47703 0.13709 0.00989
387.00000 1.47472 0.31209 -0.01390
387.10000 1.44176 0.43525 0.00355
387.20000 1.52819 0.23481 0.01982
387.30000 1.40471 0.23368 0.04376
387.40000 1.45441 0.00701 -0.02107
387.50000 1.43856 -0.11609 0.02427
387.60000 1.46953 -0.01582 0.00023
387.70000 1.46764 0.06082 0.00119
387.80000 1.41782 0.17809 0.00986
387.90000 1.48209 -0.00269 -0.01515
388.00000 1.46824 -0.32002 -0.00400
388.10000 1.41916 -0.50406 0.01252
388.20000 1.42354 -0.44822 -0.07454
388.30000 1.50048 -0.18721 0.05598
388.40000 1.45088 -0.00768 0.01888
388.50000 1.47063 0.06838 -0.08328
388.60000 1.46821 0.01661 -0.02285
388.70000 1.48278 -0.04177 0.03353
388.80000 1.47409 -0.07388 -0.01536
388.90000 1.38014 0.07722 0.02226
389.00000 1.46185 0.16799 0.03558
389.10000 1.54287 0.30527 -0.03052
389.20000 1.39058 0.33711 0.02280
389.30000 1.41742 0.11579 -0.01615
389.40000 1.44125 -0.15671 -0.09892
389.50000 1.48897 -0.25216 0.00868
389.60000 1.48136 -0.14269 -0.01437
389.70000 1.39220 -0.09914 0.03090
389.80000 1.51333 -0.20267 -0.04018
389.90000 1.51803 0.00087 -0.03699
390.00000 1.49004 0.09284 -0.04351
390.10000 1.46033 -0.00022 0.02634
390.20000 1.45276 0.18842 -0.01510
390.30000 1.38829 0.28773 -0.02893
390.40000 1.53020 0.31693 0.00403
390.50000 1.40579 0.12163 -0.00767
390.60000 1.46638 -0.00860 0.01778
390.70000 1.43828 -0.07184 -0.00770
390.80000 1.40705 0.09468 0.01735
390.90000 1.50280 0.19343 -0.00916
391.00000 1.47346 0.15211 -0.04524
391.10000 1.40889 -0.08734 -0.02018
391.20000 1.49354 -0.06778 0.05045
391.30000 1.49216 0.02919 -0.06811
391.40000 1.45552 0.18305 -0.05539
391.50000 1.49200 0.23768 0.06303
391.60000 1.47809 0.14492 0.01437
391.70000 1.39332 0.01447 -0.00411
391.80000 1.45249 -0.12747 0.04289
391.90000 1.49083 -0.12758 0.00384
392.00000 1.47361 0.00613 -0.02552
392.10000 1.47844 0.18438 0.01848
392.20000 1.47332 0.30366 0.03138
392.30000 1.41646 0.04478 -0.07483
392.40000 1.45235 -0.14022 0.00566
392.50000 1.53427 -0.18163 0.05715
392.60000 1.49769 -0.16576 0.03973
392.70000 1.40798 -0.16335 -0.07328
392.80000 1.46211 0.01098 0.00553
392.90000 1.46563 0.06421 0.00303
393.00000 1.47375 0.05594 -0.01409
393.10000 1.50232 -0.01975 -0.01888
393.20000 1.50532 0.04923 0.03479
393.30000 1.41466 0.04857 0.00625
393.40000 1.44115 0.04437 -0.04321
393.50000 1.45975 -0.17536 0.02083
393.60000 1.47483 -0.07972 0.01425
393.70000 1.43808 0.15178 0.00307
393.80000 1.42329 0.14166 -0.02902
393.90000 1.48792 0.07790 -0.00440
394.00000 1.42666 0.11058 -0.00073
394.10000 1.46378 0.09936 -0.02414
394.20000 1.43791 0.05390 -0.03150
394.30000 1.48850 -0.09974 0.08300
394.40000 1.47417 -0.32514 0.02027
394.50000 1.42795 -0.53665 -0.08368
394.60000 1.45434 -0.40105 -0.02360
394.70000 1.47424 -0.05492 0.00235
394.80000 1.49043 0.22628 0.04799
394.90000 1.44907 0.43482 -0.01345
395.00000 1.48074 0.27137 0.01217
395.10000 1.51819 0.00024 0.04310
395.20000 1.54055 -0.18895 -0.01203
395.30000 1.40457 -0.04612 -0.04993
395.40000 1.50760 0.17067 -0.00341
395.50000 1.49572 0.10091 -0.01041
395.60000 1.47466 0.04399 0.01995
395.70000 1.41973 -0.09159 -0.04411
395.80000 1.52468 -0.09825 0.00293
395.90000 1.44249 -0.10145 -0.01583
396.00000 1.47866 -0.21805 0.04099
396.10000 1.46112 -0.08212 0.07038
396.20000 1.44499 0.08796 -0.03000
396.30000 1.55078 0.22766 -0.01412
396.40000 1.41511 0.04229 -0.01072
396.50000 1.41895 -0.08443 0.00351
396.60000 1.48798 -0.01905 0.00251
396.70000 1.48153 0.16346 -0.04141
396.80000 1.44811 0.39860 -0.04022
396.90000 1.44170 0.35667 0.01560
397.00000 1.49114 0.24942 0.00901
397.10000 1.48963 -0.04103 0.01154
397.20000 1.49630 -0.29842 0.02894
397.30000 1.46630 -0.14514 0.05869
397.40000 1.51638 0.04194 -0.07512
397.50000 1.49022 0.15091 0.00830
397.60000 1.45649 0.25924 0.02287
397.70000 1.45289 0.24416 -0.04591
397.80000 1.50164 0.17767 -0.00473
397.90000 1.44185 -0.05784 0.04657
398.00000 1.46459 -0.08850 -0.01862
398.10000 1.43246 0.06819 0.01907
398.20000 1.51439 0.11558 -0.01485
398.30000 1.52942 0.11272 -0.00820
398.40000 1.42510 0.07647 0.02782
398.50000 1.46897 0.03300 0.00074
398.60000 1.49660 -0.23115 0.01415
398.70000 1.45188 -0.40124 0.00975
398.80000 1.45577 -0.26428 -0.08115
398.90000 1.44782 -0.00366 0.03044
399.00000 1.48578 -0.00248 0.02248
399.10000 1.50188 -0.00788 0.00679
399.20000 1.44492 0.01662 0.02643
399.30000 1.47899 0.13174 -0.03876
399.40000 1.45851 -0.03723 0.07592
399.50000 1.49817 -0.30326 -0.01105
399.60000 1.45577 -0.14653 0.05713
399.70000 1.43662 0.02875 0.00109
399.80000 1.48065 0.17721 -0.07098
399.90000 1.44689 0.07743 0.05939
400.00000 1.46234 -0.06403 0.05916
400.10000 1.45869 -0.08064 -0.00030
400.20000 1.47300 0.08071 -0.03274
400.30000 1.48366 0.13056 -0.01670
400.40000 1.45439 -0.07101 0.01472
400.50000 1.41293 -0.23581 0.03081
400.60000 1.50373 -0.27326 -0.01808
400.70000 1.41143 -0.07294 0.00314
400.80000 1.45107 0.41014 -0.05147
400.90000 1.49308 0.41026 0.03664
401.00000 1.46893 0.19340 0.07807
401.10000 1.51750 0.00653 -0.05418
401.20000 1.50205 0.08443 -0.04627
401.30000 1.45769 0.09638 0.06920
401.40000 1.41537 0.12333 -0.00646
401.50000 1.46982 0.04560 -0.03691
401.60000 1.48620 0.12539 0.00068
401.70000 1.45488 -0.03143 0.02113
401.80000 1.44700 -0.17245 0.00427
401.90000 1.46377 -0.13866 -0.01750
402.00000 1.52385 0.02351 0.04408
402.10000 1.49860 0.12257 -0.03095
402.20000 1.42830 0.16297 -0.04488
402.30000 1.40970 0.18272 -0.02610
402.40000 1.51891 0.15992 0.02104
402.50000 1.46607 0.05925 -0.01065
402.60000 1.44970 -0.33911 0.01593
402.70000 1.46976 -0.39922 -0.08347
402.80000 1.44706 -0.42769 0.01587
402.90000 1.49823 -0.45338 0.05838
403.00000 1.45196 -0.33907 -0.03302
403.10000 1.40613 -0.30571 -0.01689
403.20000 1.45598 -0.24693 0.00511
403.30000 1.47103 -0.20574 -0.04246
403.40000 1.46314 -0.10216 0.05157
403.50000 1.44718 0.03045 -0.02298
403.60000 1.48504 -0.05003 0.01052
403.70000 1.47605 -0.04046 0.02086
403.80000 1.44947 0.15636 -0.06372
403.90000 1.47158 0.30993 0.00310
404.00000 1.45510 0.19328 0.02597
404.10000 1.45208 -0.05272 -0.00370
404.20000 1.50562 -0.07796 -0.01369
404.30000 1.50281 -0.11275 0.01563
404.40000 1.40249 0.07370 0.04871
404.50000 1.47664 0.12826 -0.05127
404.60000 1.55191 0.09211 0.07510
404.70000 1.47801 -0.03708 -0.01509
404.80000 1.40750 -0.06601 -0.00181
404.90000 1.53782 -0.00875 0.03097
405.00000 1.46300 0.13498 -0.00088
405.10000 1.42154 0.25174 -0.00693
405.20000 1.42225 0.23249 -0.07801
405.30000 1.51901 0.11746 0.04528
405.40000 1.48704 -0.13688 -0.00178
405.50000 1.40356 -0.10624 -0.06485
405.60000 1.49467 0.05221 0.07308
405.70000 1.55384 0.18357 0.00504
405.80000 1.42142 0.06935 0.01111
405.90000 1.41071 0.05516 -0.02145
406.00000 1.42985 -0.08256 0.02709
406.10000 1.46811 -0.18549 0.00795
406.20000 1.48678 0.02879 -0.03256
406.30000 1.46691 0.18475 0.03482
406.40000 1.43936 0.19068 0.04912
406.50000 1.48792 0.11097 -0.08442
406.60000 1.47279 -0.05978 0.00791
406.70000 1.48263 -0.14607 0.09070
406.80000 1.43381 0.03492 -0.03301
406.90000 1.49343 0.07778 -0.03208
407.00000 1.47575 -0.06647 -0.01725
407.10000 1.45281 0.02430 0.01296
407.20000 1.50721 0.03871 -0.03994
407.30000 1.48133 0.03560 0.05873
407.40000 1.43988 -0.06970 -0.01202
407.50000 1.37223 -0.14563 -0.04146
407.60000 1.49280 -0.17399 0.06892
407.70000 1.53988 -0.20781 0.01216
407.80000 1.46376 -0.25974 -0.06871
407.90000 1.42213 -0.12485 0.00720
408.00000 1.44719 0.11553 0.01580
408.10000 1.56698 0.17515 0.05565
408.20000 1.51079 0.14204 0.02954
408.30000 1.36122 0.12144 -0.05529
408.40000 1.43255 0.03500 -0.04524
408.50000 1.50185 0.06837 0.06678
408.60000 1.51161 0.02260 -0.00930
408.70000 1.47622 0.03672 -0.07127
408.80000 1.41838 0.01009 0.02349
408.90000 1.53361 0.10188 0.01971
409.00000 1.42126 0.02791 0.00709
409.10000 1.40729 0.01951 -0.03120
409.20000 1.48088 -0.11049 0.02079
409.30000 1.49023 -0.24355 -0.00783
409.40000 1.42336 -0.17967 -0.03464
409.50000 1.48764 -0.09499 -0.00301
409.60000 1.42876 0.13497 -0.05195
409.70000 1.43751 0.28882 0.01911
409.80000 1.51602 0.39865 -0.03223
409.90000 1.39808 0.29341 -0.02576
410.00000 1.42216 0.33559 0.00351
410.10000 1.49239 0.29644 -0.02100
410.20000 1.46240 0.12993 0.05254
410.30000 1.46533 -0.03347 -0.00217
410.40000 1.40104 -0.20974 -0.01572
410.50000 1.50046 -0.11184 -0.00873
410.60000 1.51627 -0.13344 0.00715
410.70000 1.45918 -0.12103 -0.01771
410.80000 1.45038 -0.02746 0.01610
410.90000 1.49088 0.16534 0.02398
411.00000 1.47902 0.32183 -0.02562
411.10000 1.43820 0.32496 0.00601
411.20000 1.44826 0.10889 0.04479
411.30000 1.48234 0.03658 0.01314
411.40000 1.46507 0.17349 0.01310
411.50000 1.46963 0.23165 0.02852
411.60000 1.43286 0.02708 -0.04826
411.70000 1.44437 -0.00249 0.02406
411.80000 1.44600 0.12740 -0.00929
411.90000 1.48541 0.29346 -0.02991
412.00000 1.46006 0.19122 0.02991
412.10000 1.44532 -0.00154 -0.02361
412.20000 1.48134 -0.12880 0.00024
412.30000 1.50448 -0.16209 0.02913
412.40000 1.36497 -0.06524 0.03194
412.50000 1.47120 -0.03809 -0.02981
412.60000 1.50531 0.01073 -0.05646
412.70000 1.41610 0.13285 -0.03100
412.80000 1.45948 0.05165 -0.01478
412.90000 1.49082 -0.05975 -0.01856
413.00000 1.44107 -0.13614 0.02767
413.10000 1.41323 -0.08271 0.00579
413.20000 1.51576 0.14245 0.04783
413.30000 1.51839 0.17742 -0.00741
413.40000 1.39557 0.02508 -0.08373
413.50000 1.48712 -0.03803 0.03037
413.60000 1.50432 -0.10084 0.01711
413.70000 1.47282 -0.05664 -0.02816
413.80000 1.49285 0.04696 -0.06340
413.90000 1.44942 0.16993 0.02304
414.00000 1.49061 0.25246 -0.01868
414.10000 1.44408 0.07143 0.00775
414.20000 1.41179 -0.19929 0.04116
414.30000 1.51110 -0.06632 -0.03227
414.40000 1.51183 0.01388 -0.03008
414.50000 1.40743 -0.07539 0.03325
414.60000 1.47621 -0.19693 0.02955
414.70000 1.46111 -0.30582 -0.03437
414.80000 1.50655 -0.23118 0.05696
414.90000 1.45410 0.13124 -0.02129
415.00000 1.46513 0.14423 0.05814
415.10000 1.47672 -0.08065 0.00079
415.20000 1.45116 -0.22168 -0.00793
415.30000 1.51609 -0.19512 -0.03093
415.40000 1.49400 -0.08066 0.00648
415.50000 1.35918 0.02966 0.04386
415.60000 1.48748 0.02418 0.04784
415.70000 1.55415 -0.03731 0.00649
415.80000 1.40628 -0.07565 -0.03709
415.90000 1.46334 -0.04709 0.00751
416.00000 1.52553 -0.10938 0.08935
416.10000 1.43631 -0.22258 -0.03102
416.20000 1.41380 -0.38062 -0.04900
416.30000 1.45095 -0.28518 -0.01981
416.40000 1.44934 -0.20016 0.06318
416.50000 1.46264 -0.11561 0.03738
416.60000 1.41301 -0.18257 -0.01766
416.70000 1.44462 -0.37684 -0.06435
416.80000 1.43701 -0.09523 -0.01002
416.90000 1.53278 0.15456 0.07803
417.00000 1.40104 0.08644 -0.00115
417.10000 1.50700 -0.07157 -0.06428
417.20000 1.49176 -0.14751 -0.00356
417.30000 1.43040 -0.02806 -0.00369
417.40000 1.41272 -0.11817 0.00729
417.50000 1.48944 0.13273 0.00777
417.60000 1.43882 0.26718 0.02338
417.70000 1.47151 0.05548 -0.03515
417.80000 1.44344 0.02574 0.00289
417.90000 1.52469 0.00221 0.04166
418.00000 1.49331 0.21315 -0.03637
418.10000 1.37511 0.28425 0.04732
418.20000 1.46024 0.12441 0.03043
418.30000 1.52753 0.08227 -0.02581
418.40000 1.44360 -0.27843 -0.02187
418.50000 1.45694 -0.40873 0.09290
418.60000 1.43978 -0.22134 -0.04388
418.70000 1.44537 0.14715 -0.03906
418.80000 1.48464 0.19991 0.00118
418.90000 1.44889 0.00538 -0.01867
419.00000 1.46679 -0.20913 -0.02935
419.10000 1.48185 -0.16350 0.01682
419.20000 1.43280 -0.08077 0.02806
419.30000 1.44530 -0.17339 0.02994
419.40000 1.46540 -0.09767 0.05843
419.50000 1.48707 -0.01559 -0.01872
419.60000 1.44174 0.12776 0.03138
419.70000 1.48385 0.29418 0.07431
419.80000 1.45357 0.37720 -0.00310
419.90000 1.41505 0.16606 0.06016
420.00000 1.42764 0.06012 -0.02490
420.10000 1.46425 0.20906 -0.04534
420.20000 1.41952 0.30338 0.01586
420.30000 1.48578 0.24742 -0.01674
420.40000 1.45465 0.16090 0.03163
420.50000 1.44433 -0.11005 -0.02804
420.60000 1.44226 -0.32785 0.02357
420.70000 1.49200 -0.22455 0.03255
420.80000 1.44609 0.03408 -0.01074
420.90000 1.49505 0.17439 -0.05848
421.00000 1.42860 0.14586 -0.00423
421.10000 1.45832 -0.02233 0.01394
421.20000 1.45806 -0.11645 0.01874
421.30000 1.55060 -0.06294 0.01597
421.40000 1.53645 -0.03188 -0.02471
421.50000 1.35237 0.09500 -0.01571
421.60000 1.43262 0.17875 0.03236
421.70000 1.52541 0.10855 0.02639
421.80000 1.48490 -0.03219 -0.06800
421.90000 1.45141 -0.08277 0.01260
422.00000 1.45693 -0.26357 0.02013
422.10000 1.47373 -0.29561 -0.02347
422.20000 1.47813 -0.21816 -0.00173
422.30000 1.53962 0.03578 0.03106
422.40000 1.41494 0.02804 0.01428
422.50000 1.43031 0.13173 -0.00622
422.60000 1.49606 0.34216 0.01874
422.70000 1.44266 0.38038 -0.03765
422.80000 1.42758 0.24720 0.02636
422.90000 1.54136 -0.11298 0.07635
423.00000 1.47802 -0.22503 -0.05586
423.10000 1.48495 -0.01637 -0.03197
423.20000 1.42065 0.08190 0.03254
423.30000 1.49723 0.01045 -0.04078
423.40000 1.50608 -0.08854 -0.02732
423.50000 1.47406 -0.21635 0.01180
423.60000 1.39403 -0.23547 -0.00406
423.70000 1.50007 -0.12430 0.04198
423.80000 1.49080 -0.16539 0.04386
423.90000 1.43157 -0.09471 -0.04750
424.00000 1.45789 -0.25029 -0.04630
424.10000 1.43835 -0.25628 0.04002
424.20000 1.44461 0.10090 -0.01151
424.30000 1.45398 0.00258 0.01634
424.40000 1.47443 -0.10508 -0.01557
424.50000 1.44214 -0.15425 -0.00634
424.60000 1.53651 -0.09192 -0.02423
424.70000 1.45362 -0.02034 -0.00498
424.80000 1.40386 0.03689 0.01678
424.90000 1.44293 -0.09060 -0.07171
425.00000 1.54007 -0.07141 0.02207
425.10000 1.41249 0.02858 0.03045
425.20000 1.41200 -0.19394 0.02648
425.30000 1.52141 -0.28502 -0.03781
425.40000 1.45054 -0.16258 0.07016
425.50000 1.44795 -0.22773 -0.01274
425.60000 1.50300 -0.29878 -0.06442
425.70000 1.39668 -0.13736 -0.00782
425.80000 1.50692 0.08460 0.02457
425.90000 1.47493 0.29391 0.01458
426.00000 1.45551 0.34468 -0.03885
426.10000 1.50475 0.28150 0.05075
426.20000 1.46049 0.05878 0.05651
426.30000 1.44866 -0.06284 0.03050
426.40000 1.49248 0.01615 0.01866
426.50000 1.47292 0.05517 -0.05890
426.60000 1.47530 0.08117 0.01473
426.70000 1.43625 -0.05234 0.08186
426.80000 1.48864 -0.10969 -0.08087
426.90000 1.44950 -0.05385 -0.02589
427.00000 1.45019 0.03863 0.10936
427.10000 1.46881 0.00225 -0.03169
427.20000 1.45512 -0.09258 -0.04895
427.30000 1.44644 -0.10940 0.02153
427.40000 1.44439 -0.15360 -0.01232
427.50000 1.49811 -0.05844 0.01922
427.60000 1.46006 -0.03310 0.03999
427.70000 1.43654 0.05314 -0.01171
427.80000 1.50118 0.01292 0.02299
427.90000 1.45875 0.01016 -0.01633
428.00000 1.42372 -0.10288 -0.05954
428.10000 1.42661 -0.08207 0.09270
428.20000 1.56155 -0.11146 -0.01134
428.30000 1.36071 -0.15813 -0.07648
428.40000 1.42513 -0.03714 0.00674
428.50000 1.56885 -0.08642 0.05587
428.60000 1.45574 -0.27293 0.02529
428.70000 1.46612 -0.22837 -0.05245
428.80000 1.48340 -0.06587 0.03491
428.90000 1.47014 -0.12535 0.01659
429.00000 1.52535 -0.18435 -0.04629
429.10000 1.47385 -0.12884 0.00646
429.20000 1.46168 0.02200 0.07719
429.30000 1.46724 0.19355 0.01786
429.40000 1.47790 0.29007 0.00746
429.50000 1.48445 0.07721 -0.02755
429.60000 1.41688 -0.12741 -0.02675
429.70000 1.50500 -0.19812 0.03659
429.80000 1.43872 -0.24537 0.01548
429.90000 1.48394 -0.03465 -0.03302
430.00000 1.48839 0.01346 0.02286
430.10000 1.47901 -0.05358 -0.04601
430.20000 1.44993 -0.18995 0.04722
430.30000 1.41647 -0.10161 -0.03030
430.40000 1.50024 0.15513 0.00558
430.50000 1.50633 0.03079 -0.03229
430.60000 1.50051 0.02993 -0.00140
430.70000 1.43507 0.15639 -0.05266
430.80000 1.43403 0.05344 0.06956
430.90000 1.48121 0.06396 -0.00613
431.00000 1.47897 0.06376 0.01017
431.10000 1.48602 0.04839 -0.00487
431.20000 1.41452 0.12446 -0.04883
431.30000 1.42226 0.22293 0.03796
431.40000 1.48866 0.19166 -0.00470
431.50000 1.49219 0.02720 0.03353
431.60000 1.39941 -0.09520 -0.03250
431.70000 1.43076 0.04983 -0.04600
431.80000 1.51282 -0.03552 0.00972
431.90000 1.44716 -0.02991 0.02999
432.00000 1.40668 0.21677 -0.01218
432.10000 1.46177 0.26262 -0.05975
432.20000 1.46699 -0.06366 0.03145
432.30000 1.50300 -0.34399 0.00041
432.40000 1.47323 -0.39196 -0.03597
432.50000 1.44351 -0.15257 0.00185
432.60000 1.47100 0.04655 0.05654
432.70000 1.44935 0.22673 -0.00575
432.80000 1.46754 0.20091 0.00681
432.90000 1.46977 0.17168 -0.07827
433.00000 1.48919 0.08713 0.02433
433.10000 1.50048 -0.15737 0.02662
433.20000 1.45294 -0.23892 -0.03603
433.30000 1.41749 -0.16407 0.00730
433.40000 1.43851 -0.05309 0.05700
433.50000 1.45220 0.04517 -0.07546
433.60000 1.47662 -0.12265 0.02149
433.70000 1.47338 -0.14804 0.00981
433.80000 1.47175 -0.06979 0.02751
433.90000 1.44084 -0.06684 -0.03481
434.00000 1.43839 -0.13512 -0.03283
434.10000 1.52103 -0.04083 0.06849
434.20000 1.44219 0.08355 -0.01837
434.30000 1.46748 0.11251 -0.01412
434.40000 1.43589 0.12619 0.06771
434.50000 1.47921 0.15418 0.05217
434.60000 1.50085 0.19728 -0.05755
434.70000 1.50737 0.22228 -0.04847
434.80000 1.41422 0.23616 0.04668
434.90000 1.47222 0.13335 -0.03816
435.00000 1.44451 0.01613 0.02653
435.10000 1.48428 -0.00128 0.03634
435.20000 1.48720 -0.07679 -0.04192
435.30000 1.43151 -0.13545 -0.02012
435.40000 1.43494 -0.11452 -0.01664
435.50000 1.48604 -0.13525 -0.01006
435.60000 1.53041 0.05226 -0.00735
435.70000 1.41601 0.17544 -0.01779
435.80000 1.37606 0.02945 0.01437
435.90000 1.50830 -0.01839 0.01083
436.00000 1.50750 -0.03223 -0.00303
436.10000 1.44200 0.13572 -0.00926
436.20000 1.46294 0.00701 0.02816
436.30000 1.44140 -0.22225 -0.00023
436.40000 1.51851 -0.09800 0.01125
436.50000 1.46335 0.24904 0.00516
436.60000 1.43958 0.31320 0.00405
436.70000 1.49635 0.14404 0.01633
436.80000 1.43277 -0.11186 -0.02290
436.90000 1.47109 -0.10480 -0.04841
437.00000 1.47773 -0.05329 0.09846
437.10000 1.45640 0.09556 0.01546
437.20000 1.46691 0.13685 -0.04356
437.30000 1.43701 0.05034 0.04893
437.40000 1.51574 0.10039 -0.01723
437.50000 1.49451 0.24702 -0.01003
437.60000 1.44593 0.31746 0.01198
437.70000 1.46225 0.35178 0.01736
437.80000 1.46692 0.30258 -0.05495
437.90000 1.42877 0.24490 -0.05759
438.00000 1.51301 0.12433 0.01470
438.10000 1.44016 0.06158 -0.02798
438.20000 1.45035 -0.05947 -0.00683
438.30000 1.44863 -0.19840 0.05758
438.40000 1.48261 -0.14629 0.02887
438.50000 1.45226 0.07986 -0.09571
438.60000 1.43136 0.28759 0.03769
438.70000 1.47751 0.35568 0.01980
438.80000 1.46285 0.16936 -0.04064
438.90000 1.46085 -0.01113 -0.04196
439.00000 1.42019 -0.14815 0.06679
439.10000 1.46254 -0.09257 -0.02746
439.20000 1.53255 -0.02495 -0.03378
439.30000 1.47248 0.10041 0.00803
439.40000 1.45011 -0.04760 -0.01186
439.50000 1.40910 0.03434 0.00021
439.60000 1.48898 0.19437 0.04505
439.70000 1.49425 0.22559 -0.00031
439.80000 1.41121 0.33530 0.02644
439.90000 1.46575 0.20555 -0.01884
440.00000 1.47947 0.29203 0.07214
440.10000 1.42252 0.18575 -0.02310
440.20000 1.51822 0.04229 -0.01870
440.30000 1.46707 -0.27554 -0.01948
440.40000 1.41666 -0.36175 0.01217
440.50000 1.49756 -0.23798 0.02250
440.60000 1.43296 -0.27345 0.03106
440.70000 1.42657 -0.27725 -0.01937
440.80000 1.49662 -0.24712 -0.04822
440.90000 1.44329 -0.08279 0.05924
441.00000 1.45921 0.06924 -0.00333
441.10000 1.46444 0.08976 0.02868
441.20000 1.44179 0.04655 -0.01338
441.30000 1.41307 0.03950 0.02232
441.40000 1.39917 0.13866 0.01595
441.50000 1.51837 0.00562 -0.05816
441.60000 1.47238 -0.14298 -0.00131
441.70000 1.39394 -0.10518 -0.00210
441.80000 1.47813 0.03503 0.02100
441.90000 1.50613 0.15932 -0.00339
442.00000 1.40604 0.17768 0.01375
442.10000 1.45963 0.07726 -0.06366
442.20000 1.42778 0.08967 0.02988
442.30000 1.45679 0.00186 0.00769
442.40000 1.42099 -0.07421 0.01011
442.50000 1.44931 -0.12257 -0.03338
442.60000 1.49173 -0.14319 -0.00996
442.70000 1.50132 -0.27138 0.04127
442.80000 1.42094 -0.37401 -0.01560
442.90000 1.47356 -0.17556 -0.03403
443.00000 1.46845 -0.32227 -0.02426
443.10000 1.42773 -0.41437 -0.04863
443.20000 1.46133 -0.20797 0.09905
443.30000 1.53780 -0.05516 0.00087
443.40000 1.45153 -0.04653 -0.01392
443.50000 1.40595 -0.13490 0.05641
443.60000 1.51583 -0.19247 0.03896
443.70000 1.45385 -0.10862 -0.01564
443.80000 1.38392 -0.01952 0.02687
443.90000 1.50203 0.22301 -0.03820
444.00000 1.53075 0.42076 -0.00296
444.10000 1.44753 0.27029 -0.01339
444.20000 1.49635 0.19287 -0.00536
444.30000 1.50604 0.01647 0.04278
444.40000 1.44872 -0.12197 0.04658
444.50000 1.44479 0.06554 0.04176
444.60000 1.49879 0.00298 -0.02599
444.70000 1.51143 -0.08531 0.04929
444.80000 1.45911 -0.07572 0.01968
444.90000 1.36967 0.17413 -0.03799
445.00000 1.49086 0.05348 -0.01364
445.10000 1.46343 0.17220 -0.00293
445.20000 1.43983 0.27960 0.04461
445.30000 1.45499 0.17483 -0.03838
445.40000 1.44864 0.10215 -0.03762
445.50000 1.48199 -0.08764 0.08046
445.60000 1.50583 -0.11489 -0.02368
445.70000 1.51200 0.06056 -0.07475
445.80000 1.45056 0.26673 0.05376
445.90000 1.44572 0.12296 0.02013
446.00000 1.47732 -0.06602 -0.02732
446.10000 1.42206 -0.32667 -0.00886
446.20000 1.43728 -0.29176 0.02744
446.30000 1.42831 -0.03536 -0.01313
446.40000 1.49476 0.08171 -0.02187
446.50000 1.46851 0.04646 0.00005
446.60000 1.43427 -0.10617 0.03433
446.70000 1.45135 -0.17572 0.00701
446.80000 1.48827 -0.04190 -0.04731
446.90000 1.43332 0.16865 0.02341
447.00000 1.47012 0.20474 -0.00218
447.10000 1.49946 0.23255 0.01364
447.20000 1.43926 0.02289 -0.02816
447.30000 1.36657 -0.11419 -0.03998
447.40000 1.51818 -0.03882 0.01899
447.50000 1.43214 0.02070 0.05078
447.60000 1.40498 -0.14850 -0.02168
447.70000 1.47928 -0.12669 -0.00376
447.80000 1.49375 0.08295 -0.00091
447.90000 1.46593 0.06793 0.00692
448.00000 1.47626 0.11126 0.00735
448.10000 1.49250 0.09880 0.06630
448.20000 1.46589 0.06881 0.04093
448.30000 1.46823 -0.00961 0.00142
448.40000 1.41131 -0.06908 -0.10212
448.50000 1.39788 -0.02489 0.01315
448.60000 1.53550 0.08330 0.02033
448.70000 1.44831 0.22091 -0.02271
448.80000 1.42177 0.14656 0.00017
448.90000 1.48523 -0.06390 0.05286
449.00000 1.50978 0.05500 -0.00365
449.10000 1.46870 0.12385 -0.00687
449.20000 1.44752 0.04100 -0.00772
449.30000 1.44466 -0.13067 0.01664
449.40000 1.51836 -0.10238 -0.05115
449.50000 1.42630 -0.10322 -0.03948
449.60000 1.46455 0.09496 0.00531
449.70000 1.40807 0.20517 -0.03957
449.80000 1.48210 0.18377 0.05225
449.90000 1.44603 0.05997 -0.02381
450.00000 1.43755 -0.13420 -0.04252
450.10000 1.46549 -0.11676 -0.03537
450.20000 1.45158 0.03463 0.01137
450.30000 1.45067 0.00602 0.03864
450.40000 1.46925 -0.08562 -0.02685
450.50000 1.44583 -0.11506 -0.05479
450.60000 1.48063 -0.08218 0.01564
450.70000 1.54115 0.11163 -0.02362
450.80000 1.45057 -0.04312 -0.00983
450.90000 1.43343 -0.11998 0.03353
451.00000 1.45828 -0.09293 -0.06054
451.10000 1.41391 -0.14514 0.08514
451.20000 1.51635 -0.03207 -0.00018
451.30000 1.46635 -0.08309 -0.02327
451.40000 1.41571 -0.12741 0.07414
451.50000 1.48632 0.00944 0.02196
451.60000 1.49931 -0.04485 0.00035
451.70000 1.53226 -0.13075 -0.02639
451.80000 1.41948 -0.25046 0.04079
451.90000 1.43567 -0.25757 0.02351
452.00000 1.48439 -0.08119 0.00391
452.10000 1.44838 0.08466 -0.02080
452.20000 1.42335 0.15700 0.00702
452.30000 1.52170 0.07088 -0.00156
452.40000 1.44555 -0.04302 -0.00385
452.50000 1.46260 0.21743 -0.03476
452.60000 1.47450 0.38713 0.03595
452.70000 1.46664 0.32559 0.02526
452.80000 1.44342 0.11098 -0.02755
452.90000 1.50767 0.15895 -0.01133
453.00000 1.49081 -0.04533 0.00026
453.10000 1.39828 -0.07462 -0.03101
453.20000 1.46517 0.03522 -0.03154
453.30000 1.46886 -0.17125 0.03076
453.40000 1.38748 -0.26752 -0.01483
453.50000 1.46929 -0.05467 -0.06876
453.60000 1.52678 -0.01376 0.03499
453.70000 1.48954 0.17061 0.04878
453.80000 1.42108 0.04118 -0.04247
453.90000 1.52086 0.04588 -0.04660
454.00000 1.43771 -0.01363 0.08105
454.10000 1.47909 0.06490 0.00299
454.20000 1.43567 0.00969 -0.04813
454.30000 1.46405 0.08329 -0.01482
454.40000 1.48373 0.03501 0.07261
454.50000 1.42853 -0.21424 -0.06277
454.60000 1.50953 -0.31044 -0.01180
454.70000 1.49260 -0.08657 0.00999
454.80000 1.43736 0.14399 0.04797
454.90000 1.47394 0.25899 0.01047
455.00000 1.49191 0.22480 0.02543
455.10000 1.45774 0.04151 -0.06130
455.20000 1.44465 -0.03146 0.03716
455.30000 1.43790 0.07791 0.07903
455.40000 1.41535 0.00857 -0.01038
455.50000 1.52488 -0.12491 -0.00718
455.60000 1.50102 -0.06026 -0.05770
455.70000 1.49642 0.04227 0.02877
455.80000 1.44930 -0.08135 -0.00248
455.90000 1.47819 -0.07104 -0.00873
456.00000 1.51354 -0.18564 0.01613
456.10000 1.49513 -0.03198 0.00876
456.20000 1.38660 0.08880 -0.01545
456.30000 1.49813 -0.21673 0.03014
456.40000 1.50870 -0.28352 -0.02057
456.50000 1.39093 -0.11622 -0.00148
456.60000 1.43627 0.18507 -0.01133
456.70000 1.51458 0.18160 -0.02067
456.80000 1.47119 0.33800 -0.01725
456.90000 1.50040 0.12164 -0.00048
457.00000 1.49520 -0.01571 -0.02417
457.10000 1.44225 -0.02691 0.04335
457.20000 1.43723 0.00607 -0.02079
457.30000 1.46050 -0.13360 0.00373
457.40000 1.47298 -0.11052 0.02020
457.50000 1.44845 0.02926 0.00215
457.60000 1.45475 -0.03703 -0.00147
457.70000 1.48551 0.05647 0.01906
457.80000 1.47051 0.06950 0.06260
457.90000 1.45906 -0.01433 -0.04609
458.00000 1.47206 -0.15070 -0.00065
458.10000 1.45486 -0.14556 0.01009
458.20000 1.45254 -0.01612 0.08257
458.30000 1.44282 0.01170 -0.00720
458.40000 1.47139 -0.04452 -0.08175
458.50000 1.47970 -0.18755 -0.01704
458.60000 1.40227 -0.17286 0.00320
458.70000 1.47373 -0.04658 0.03868
458.80000 1.48780 0.02922 0.02539
458.90000 1.46386 0.29344 0.00986
459.00000 1.43928 0.41610 -0.02079
459.10000 1.45942 0.20327 0.04747
459.20000 1.51031 0.13791 0.00777
459.30000 1.42129 0.00176 -0.08949
459.40000 1.41781 -0.13356 0.05983
459.50000 1.49626 -0.10039 0.05426
459.60000 1.51362 -0.02915 -0.03151
459.70000 1.44167 -0.01211 -0.04743
459.80000 1.44267 0.11464 0.01501
459.90000 1.47235 0.12298 0.00819
460.00000 1.46588 0.02887 0.02658
460.10000 1.43762 -0.02412 0.05634
460.20000 1.45407 -0.16998 -0.01381
460.30000 1.50548 -0.14964 -0.02242
460.40000 1.47843 0.00550 0.04425
460.50000 1.39604 0.02002 -0.04951
460.60000 1.44878 0.02325 0.01862
460.70000 1.53827 0.11345 0.02619
460.80000 1.52660 0.29531 0.02973
460.90000 1.43808 0.30421 -0.01648
461.00000 1.41441 0.15516 0.00970
461.10000 1.50488 -0.07523 -0.01911
461.20000 1.48351 -0.17312 0.02283
461.30000 1.40837 -0.00751 -0.07086
461.40000 1.51526 0.03314 0.00750
461.50000 1.48150 0.15177 0.02962
461.60000 1.45757 0.34416 0.01508
461.70000 1.45826 0.37807 -0.05797
461.80000 1.41727 0.06175 -0.03308
461.90000 1.50208 -0.08828 0.02040
462.00000 1.46159 0.03800 -0.02002
462.10000 1.40814 0.22951 -0.02384
462.20000 1.44896 0.28184 0.02585
462.30000 1.46748 0.20913 -0.02544
462.40000 1.54123 0.01723 0.02229
462.50000 1.44704 -0.05748 -0.07803
462.60000 1.45216 -0.01699 0.05586
462.70000 1.48142 0.03134 0.03065
462.80000 1.47722 0.03676 -0.01265
462.90000 1.39213 0.04936 -0.03334
463.00000 1.49823 -0.09121 -0.03008
463.10000 1.47307 -0.10688 0.00571
463.20000 1.43468 -0.16914 -0.01633
463.30000 1.43132 -0.03267 0.01613
463.40000 1.48498 0.07501 -0.00792
463.50000 1.52287 0.16049 -0.01702
463.60000 1.51550 0.13632 0.02481
463.70000 1.41917 0.03793 -0.04205
463.80000 1.47242 -0.01339 -0.01946
463.90000 1.50587 -0.06172 0.01815
464.00000 1.49823 0.04002 0.01253
464.10000 1.45441 -0.01929 -0.03219
464.20000 1.43887 -0.14799 -0.00671
464.30000 1.50764 -0.03553 0.04604
464.40000 1.47330 -0.00222 0.02762
464.50000 1.43073 -0.10011 -0.02480
464.60000 1.47276 -0.00049 -0.03873
464.70000 1.46566 0.11587 -0.03601
464.80000 1.46766 0.06872 0.04101
464.90000 1.44468 0.00427 -0.00637
465.00000 1.48735 -0.05780 -0.01127
465.10000 1.46387 0.09824 0.01143
465.20000 1.36413 0.01578 0.01491
465.30000 1.43049 0.08914 -0.00665
465.40000 1.48941 0.04873 0.01546
465.50000 1.44734 0.01484 -0.00403
465.60000 1.47447 -0.00228 0.06011
465.70000 1.44531 0.04608 -0.01766
465.80000 1.45882 0.05158 0.01435
465.90000 1.46937 0.04399 0.05104
466.00000 1.51251 0.04028 -0.01892
466.10000 1.45238 0.04303 -0.01579
466.20000 1.46970 0.13887 0.01344
466.30000 1.39608 0.17807 -0.00009
466.40000 1.50600 0.04719 0.01177
466.50000 1.48478 0.00443 0.06022
466.60000 1.45171 0.03964 -0.03335
466.70000 1.51837 0.06102 -0.00233
466.80000 1.43206 -0.05276 0.07111
466.90000 1.47010 -0.16354 0.02466
467.00000 1.44734 -0.20531 -0.02405
467.10000 1.44538 0.00433 -0.02732
467.20000 1.45912 0.16884 0.05449
467.30000 1.40434 0.11300 0.02947
467.40000 1.44797 -0.10913 -0.05323
467.50000 1.45576 -0.14511 0.02271
467.60000 1.49399 -0.07528 0.04297
467.70000 1.46941 -0.11822 -0.07165
467.80000 1.45148 0.00187 0.02827
467.90000 1.47674 0.00894 -0.03744
468.00000 1.49381 0.13618 0.04894
468.10000 1.41058 0.03152 0.02594
468.20000 1.45510 -0.08612 -0.02023
468.30000 1.49800 -0.11945 -0.04041
468.40000 1.47562 -0.23460 0.00086
468.50000 1.40982 -0.40599 0.04076
468.60000 1.48381 -0.25755 -0.01035
468.70000 1.50091 0.07229 -0.00675
468.80000 1.46235 0.10425 0.01380
468.90000 1.42716 -0.06105 0.01384
469.00000 1.46293 -0.35294 0.02640
469.10000 1.48537 -0.17916 -0.03002
469.20000 1.46482 -0.14018 0.01359
469.30000 1.44971 -0.16396 -0.00300
469.40000 1.52683 0.07163 -0.01066
469.50000 1.48249 0.36457 0.02855
469.60000 1.43267 0.51617 -0.00904
469.70000 1.47539 0.45844 -0.01696
469.80000 1.48718 0.21576 -0.00452
469.90000 1.46672 -0.08431 -0.02599
470.00000 1.49403 -0.20340 -0.00018
470.10000 1.42192 -0.17803 -0.04035
470.20000 1.40506 -0.09209 -0.01551
470.30000 1.46707 -0.02928 0.02075
470.40000 1.46492 0.21062 -0.01539
470.50000 1.41118 0.32068 -0.00250
470.60000 1.45867 0.31848 -0.04084
470.70000 1.50277 0.18800 0.02015
470.80000 1.42364 -0.04268 -0.01252
470.90000 1.40972 -0.08629 -0.01357
471.00000 1.51284 -0.18070 0.00142
471.10000 1.48775 -0.18434 0.01455
471.20000 1.40833 -0.07387 0.02157
471.30000 1.47998 0.05095 0.04394
471.40000 1.48718 -0.01253 0.00203
471.50000 1.48045 -0.17297 -0.07418
471.60000 1.50541 -0.17055 0.02909
471.70000 1.42866 -0.18467 0.01235
471.80000 1.46796 -0.14997 0.00725
471.90000 1.52277 -0.07740 -0.03145
472.00000 1.47244 -0.12609 -0.05956
472.10000 1.46203 -0.09219 0.02750
472.20000 1.43623 0.13254 0.02428
472.30000 1.40778 -0.01474 -0.00309
472.40000 1.50817 -0.12754 0.01590
472.50000 1.45895 -0.10906 -0.01190
472.60000 1.45653 0.11280 -0.01382
472.70000 1.50179 0.24711 -0.02016
472.80000 1.51352 0.00699 0.01382
472.90000 1.46490 -0.08727 0.05411
473.00000 1.45123 -0.01586 0.01504
473.10000 1.45797 0.04830 0.01362
473.20000 1.42564 0.03544 -0.06320
473.30000 1.45587 -0.17240 -0.03186
473.40000 1.46182 -0.15982 -0.01205
473.50000 1.47558 -0.06803 -0.01690
473.60000 1.46181 0.03866 0.03352
473.70000 1.45317 -0.05737 -0.00316
473.80000 1.50068 -0.10250 0.03666
473.90000 1.42068 0.05686 -0.01257
474.00000 1.49544 0.06417 0.00446
474.10000 1.43702 -0.03080 -0.02651
474.20000 1.44728 -0.07949 0.05698
474.30000 1.47825 -0.06181 0.02765
474.40000 1.53919 -0.02405 -0.00104
474.50000 1.51317 -0.00378 0.07378
474.60000 1.46862 -0.08241 -0.00314
474.70000 1.47735 -0.11826 -0.04708
474.80000 1.46914 -0.05691 0.01794
474.90000 1.44826 -0.00900 0.04636
475.00000 1.45689 -0.09426 -0.07821
475.10000 1.46331 -0.26588 0.05259
475.20000 1.46138 -0.31724 -0.01283
475.30000 1.44962 -0.17571 -0.07190
475.40000 1.38233 -0.03382 0.07563
475.50000 1.47575 0.10257 -0.04034
475.60000 1.49217 0.28217 -0.02022
475.70000 1.43299 0.10022 -0.03256
475.80000 1.45913 -0.27447 0.07431
475.90000 1.49411 -0.36618 -0.01642
476.00000 1.40813 -0.25087 0.01115
476.10000 1.51750 0.08670 0.03412
476.20000 1.42312 0.12697 0.04209
476.30000 1.49603 0.03569 -0.01045
476.40000 1.48395 -0.01803 0.00219
476.50000 1.43293 0.01323 0.03972
476.60000 1.43965 0.08620 0.02121
476.70000 1.48809 0.03071 -0.02526
476.80000 1.46332 -0.10896 0.01539
476.90000 1.46350 0.00478 0.03001
477.00000 1.49919 0.14280 -0.03325
477.10000 1.44193 0.18052 0.02233
477.20000 1.41810 0.18099 0.06964
477.30000 1.47166 0.09767 -0.04763
477.40000 1.47683 -0.11316 -0.01617
477.50000 1.45353 -0.17486 0.04170
477.60000 1.45623 -0.13843 0.02437
477.70000 1.48671 0.10794 -0.03375
477.80000 1.45796 0.12712 -0.00409
477.90000 1.48747 0.02985 -0.01687
478.00000 1.47426 0.03868 -0.02170
478.10000 1.44323 0.01472 0.08322
478.20000 1.43629 0.19509 -0.06342
478.30000 1.42177 0.11217 -0.07278
478.40000 1.48517 0.00709 0.01428
478.50000 1.48707 0.04117 0.06247
478.60000 1.42066 0.17132 -0.00568
478.70000 1.50963 0.14587 -0.05336
478.80000 1.48436 0.10577 -0.01921
478.90000 1.54286 0.14517 0.00276
479.00000 1.43025 0.03652 -0.04070
479.10000 1.44997 0.11778 0.00524
479.20000 1.46248 -0.00660 0.00291
479.30000 1.48579 0.00895 0.01117
479.40000 1.47367 0.06437 0.07164
479.50000 1.45313 0.16730 0.01181
479.60000 1.49027 0.31027 -0.02818
479.70000 1.45804 0.18409 -0.00247
479.80000 1.45405 0.00936 0.01922
479.90000 1.47603 0.03602 -0.01544
480.00000 1.46483 -0.08885 -0.07740
480.10000 1.46706 -0.22778 0.04096
480.20000 1.47977 -0.23641 -0.01930
480.30000 1.44398 -0.08684 0.04425
480.40000 1.46000 0.01239 0.08125
480.50000 1.42833 0.06242 -0.01480
480.60000 1.45695 0.04808 -0.01055
480.70000 1.45968 0.02938 -0.03299
480.80000 1.47465 -0.00629 0.00425
480.90000 1.51162 -0.04097 0.01359
481.00000 1.45057 0.03013 -0.02807
481.10000 1.42270 0.15235 0.00699
481.20000 1.45135 0.04186 0.00631
481.30000 1.51335 -0.15179 -0.01270
481.40000 1.43159 -0.09679 -0.05855
481.50000 1.37733 -0.21737 -0.02954
481.60000 1.44934 -0.21743 0.02978
481.70000 1.55099 -0.23382 0.00001
481.80000 1.50941 0.02645 0.06318
481.90000 1.43815 0.22191 -0.02424
482.00000 1.42480 0.18887 -0.01385
482.10000 1.47116 0.09333 -0.04270
482.20000 1.49204 -0.04547 0.08271
482.30000 1.48856 -0.17312 0.03379
482.40000 1.42189 -0.18384 -0.00995
482.50000 1.39894 -0.33166 -0.06327
482.60000 1.46423 -0.34999 0.05208
482.70000 1.48743 -0.21628 -0.02904
482.80000 1.52127 -0.15629 0.03882
482.90000 1.41232 -0.20699 -0.05326
483.00000 1.49642 0.00555 0.04262
483.10000 1.44318 0.15973 -0.00109
483.20000 1.43012 0.33182 -0.02317
483.30000 1.45493 0.29311 -0.01766
483.40000 1.45452 0.30057 0.02957
483.50000 1.48380 0.07614 0.03250
483.60000 1.47984 -0.22469 -0.06593
483.70000 1.41903 -0.36777 -0.00732
483.80000 1.45568 -0.23754 0.02790
483.90000 1.44298 0.09965 0.00145
484.00000 1.48762 0.19351 -0.03443
484.10000 1.48086 0.29614 -0.00879
484.20000 1.42902 0.30224 -0.01495
484.30000 1.47787 0.23195 0.01216
484.40000 1.42897 0.13031 -0.04173
484.50000 1.45819 -0.10338 0.00833
484.60000 1.47468 -0.19167 0.04694
484.70000 1.41309 -0.01786 -0.03801
484.80000 1.57660 0.11521 -0.02383
484.90000 1.41642 0.34783 0.01327
485.00000 1.44533 0.32400 0.01099
485.10000 1.45123 0.14888 -0.02457
485.20000 1.50701 -0.10347 -0.01585
485.30000 1.47947 -0.20517 0.06637
485.40000 1.44335 -0.12093 -0.04678
485.50000 1.49158 0.01596 0.00962
485.60000 1.51244 -0.06293 0.02804
485.70000 1.41918 -0.03088 -0.05470
485.80000 1.49133 0.01431 -0.00595
485.90000 1.47723 -0.00403 -0.00987
486.00000 1.46883 -0.03934 0.02867
486.10000 1.49786 -0.21463 -0.01344
486.20000 1.39850 -0.31163 -0.02186
486.30000 1.44009 -0.16509 -0.00613
486.40000 1.47503 0.03872 -0.05961
486.50000 1.49896 0.07168 0.02489
486.60000 1.44549 0.07081 0.01826
486.70000 1.45072 -0.02976 0.00742
486.80000 1.45641 0.02657 -0.01004
486.90000 1.40711 0.08219 -0.04093
487.00000 1.53796 0.21592 0.03010
487.10000 1.44307 0.21904 0.02664
487.20000 1.44205 0.19755 -0.01735
487.30000 1.43237 0.10460 0.00179
487.40000 1.41884 -0.01435 -0.00901
487.50000 1.52491 -0.08946 -0.02181
487.60000 1.46330 -0.01276 0.03698
487.70000 1.41722 0.13497 0.05489
487.80000 1.43611 0.23045 -0.00220
487.90000 1.49325 0.17910 -0.01692
488.00000 1.46898 -0.13035 0.00124
488.10000 1.45999 -0.47695 -0.00120
488.20000 1.41682 -0.48474 0.00216
488.30000 1.52455 -0.13313 -0.02752
488.40000 1.49879 0.13420 0.02678
488.50000 1.45329 0.14039 0.04411
488.60000 1.47448 0.00603 -0.02938
488.70000 1.50853 -0.10088 -0.04606
488.80000 1.47092 -0.20869 -0.03098
488.90000 1.47905 0.02330 0.09886
489.00000 1.47846 0.15488 -0.05131
489.10000 1.39780 0.17564 0.01747
489.20000 1.44856 0.21195 -0.03617
489.30000 1.46324 0.14511 0.00607
489.40000 1.46787 0.05874 -0.01805
489.50000 1.48219 0.12449 -0.02089
489.60000 1.45069 0.27250 0.01914
489.70000 1.45873 -0.05138 -0.01226
489.80000 1.46525 -0.37786 0.03254
489.90000 1.48195 -0.33812 0.04545
490.00000 1.48091 -0.29094 -0.05467
490.10000 1.43209 -0.22906 -0.03201
490.20000 1.46123 -0.16472 0.08051
490.30000 1.45082 -0.20323 -0.02746
490.40000 1.51642 -0.12830 -0.01933
490.50000 1.49440 0.18364 -0.03229
490.60000 1.41194 0.29392 -0.03662
490.70000 1.52663 0.25048 -0.05297
490.80000 1.48924 0.23000 0.03069
490.90000 1.46941 0.11329 0.04769
491.00000 1.48590 -0.06012 -0.09408
491.10000 1.44255 -0.26725 0.00315
491.20000 1.45686 -0.32409 0.04235
491.30000 1.44012 -0.17861 0.02830
491.40000 1.47471 -0.03467 -0.02547
491.50000 1.45112 0.05418 -0.02716
491.60000 1.47215 0.26944 0.02870
491.70000 1.45639 0.24507 0.01093
491.80000 1.56569 -0.12167 -0.07967
491.90000 1.43107 -0.37253 0.02969
492.00000 1.45735 -0.11204 0.09553
492.10000 1.40834 0.17383 -0.01256
492.20000 1.49641 0.04697 -0.02615
492.30000 1.44161 0.02929 0.05039
492.40000 1.42200 0.04582 -0.00334
492.50000 1.45709 0.03533 -0.05473
492.60000 1.52255 0.04801 0.05306
492.70000 1.46327 0.14911 -0.03474
492.80000 1.39733 0.23486 -0.03483
492.90000 1.42844 0.17786 0.01729
493.00000 1.41555 0.01228 0.01347
493.10000 1.52666 -0.22454 -0.06015
493.20000 1.47898 -0.17455 0.07495
493.30000 1.44519 0.08190 0.02342
493.40000 1.48514 0.34678 -0.02125
493.50000 1.54255 0.34599 -0.03391
493.60000 1.42134 0.28892 -0.02496
493.70000 1.42759 0.22783 0.02965
493.80000 1.47944 0.08947 0.00827
493.90000 1.46237 0.04804 -0.05059
494.00000 1.44435 -0.00261 0.02841
494.10000 1.44489 -0.09141 0.01035
494.20000 1.47559 -0.00542 -0.05469
494.30000 1.46651 0.02400 0.03829
494.40000 1.41760 0.12410 0.01073
494.50000 1.42522 0.07916 -0.04026
494.60000 1.47971 -0.06031 -0.01159
494.70000 1.42773 -0.00447 -0.02998
494.80000 1.50765 -0.08529 0.01681
494.90000 1.50915 -0.00189 -0.00392
495.00000 1.47735 -0.01093 -0.02565
495.10000 1.45985 0.08361 0.04697
495.20000 1.46411 0.18693 0.02281
495.30000 1.45685 0.15833 -0.02762
495.40000 1.39028 -0.10255 -0.01433
495.50000 1.46095 -0.21238 0.00608
495.60000 1.49886 -0.22276 -0.06530
495.70000 1.42624 -0.32289 -0.01016
495.80000 1.49983 0.01984 0.01366
495.90000 1.49727 0.10210 0.01213
496.00000 1.47955 0.10221 0.03435
496.10000 1.39982 0.09998 -0.06950
496.20000 1.44343 -0.00064 -0.00163
496.30000 1.52917 0.00539 -0.01350
496.40000 1.43402 -0.03849 0.01946
496.50000 1.43316 -0.01105 -0.04671
496.60000 1.46617 0.07171 -0.05339
496.70000 1.48277 0.03260 0.04676
496.80000 1.49986 -0.19308 -0.02217
496.90000 1.47796 -0.13183 0.00288
497.00000 1.47253 0.06775 -0.04444
497.10000 1.42151 0.12146 0.03203
497.20000 1.44546 -0.04330 0.01618
497.30000 1.50682 -0.01501 -0.03464
497.40000 1.45332 0.21870 -0.03304
497.50000 1.43271 0.33184 -0.00880
497.60000 1.50466 0.12463 0.03300
497.70000 1.45346 -0.16803 0.03732
497.80000 1.40634 -0.08089 -0.01289
497.90000 1.46129 -0.25166 0.02330
498.00000 1.53117 -0.18037 -0.04595
498.10000 1.44997 0.00683 -0.04955
498.20000 1.40866 0.07251 0.06725
498.30000 1.52171 0.05251 -0.00108
498.40000 1.46873 0.09369 -0.02350
498.50000 1.37065 0.06940 0.04432
498.60000 1.48001 0.06838 -0.00397
498.70000 1.55270 -0.08572 -0.03703
498.80000 1.40563 -0.12217 -0.03226
498.90000 1.40315 -0.16924 -0.02427
499.00000 1.50166 -0.11599 0.04995
499.10000 1.43144 -0.07953 -0.06919
499.20000 1.47799 0.08995 0.01876
499.30000 1.45953 0.01321 -0.01655
499.40000 1.49390 0.00823 0.02107
499.50000 1.43255 0.11815 0.00383
499.60000 1.44204 0.31057 0.03299
499.70000 1.50946 0.30313 0.00790
499.80000 1.46521 0.19701 -0.02015
499.90000 1.41166 0.07543 -0.00140
500.00000 1.48869 0.08630 0.02400
