# t[ps]  x[nm]  y[nm]  z[nm]
0.00000 0.04495 -0.01209 -0.00486
0.10000 1.41545 0.01272 -0.01307
0.20000 0.97658 0.09756 -0.04765
0.30000 1.02144 0.19840 -0.03731
0.40000 1.13480 0.28049 0.02376
0.50000 1.04827 -0.08282 0.05478
0.60000 1.06186 -0.14943 -0.01482
0.70000 1.05293 0.18586 0.00784
0.80000 1.00907 0.10537 -0.03213
0.90000 1.11246 -0.16320 0.02499
1.00000 1.05129 -0.29949 -0.00836
1.10000 1.02258 -0.28979 -0.03201
1.20000 1.16387 -0.13794 -0.02816
1.30000 1.04189 -0.13196 -0.05776
1.40000 1.02626 0.00874 0.06649
1.50000 1.10538 0.19898 0.02022
1.60000 1.07755 0.29461 -0.02873
1.70000 1.10621 0.40628 -0.00983
1.80000 1.07367 0.22849 0.01361
1.90000 1.05706 0.05008 -0.06570
2.00000 1.14061 0.09847 0.03715
2.10000 0.94785 -0.09668 -0.02150
2.20000 1.10995 -0.21522 0.05721
2.30000 1.09212 -0.19367 -0.02054
2.40000 1.05415 -0.14298 -0.03836
2.50000 1.08725 0.09465 0.00918
2.60000 1.10378 0.24205 -0.08024
2.70000 1.01535 0.02481 0.03024
2.80000 1.01830 0.04371 0.06466
2.90000 1.08649 0.01339 0.00368
3.00000 1.08313 -0.28225 -0.03554
3.10000 1.05259 -0.31267 0.02112
3.20000 1.08936 -0.06260 0.03692
3.30000 1.08962 0.04668 0.02830
3.40000 1.07634 -0.25247 -0.00530
3.50000 1.07505 -0.32058 -0.08210
3.60000 0.98690 0.03405 0.01815
3.70000 1.14339 0.25668 0.08569
3.80000 1.02178 0.09018 -0.05439
3.90000 1.05834 -0.18861 0.01188
4.00000 1.06838 -0.12775 0.07699
4.10000 1.05466 -0.26238 -0.00623
4.20000 1.11209 -0.21305 -0.03647
4.30000 0.97533 0.06690 -0.03966
4.40000 1.09101 0.16595 0.00567
4.50000 1.05543 0.01150 0.05090
4.60000 1.03502 0.07289 -0.00790
4.70000 1.08381 0.00377 0.03925
4.80000 1.06699 -0.22045 0.00605
4.90000 1.10959 -0.33475 -0.04947
5.00000 1.08282 -0.37711 0.02919
5.10000 1.10342 -0.18612 0.00053
5.20000 1.06591 0.06121 0.00883
5.30000 1.03154 -0.04171 -0.03662
5.40000 1.14936 -0.10118 0.01305
5.50000 1.02145 -0.03443 -0.00786
5.60000 1.04469 -0.23823 -0.01339
5.70000 1.12972 -0.25259 0.02920
5.80000 1.10775 -0.16906 0.02385
5.90000 1.01414 -0.39449 -0.07816
6.00000 1.12987 -0.47247 0.01628
6.10000 0.99580 -0.47848 0.05776
6.20000 1.10172 -0.35550 0.00135
6.30000 1.07812 -0.12436 0.03147
6.40000 1.03541 -0.13870 0.00169
6.50000 1.12716 -0.24811 -0.00966
6.60000 1.14159 -0.21180 -0.02633
6.70000 1.01949 0.01043 -0.02934
6.80000 1.05191 0.08704 -0.01555
6.90000 1.10458 0.06282 0.01967
7.00000 1.02529 0.03972 -0.02535
7.10000 1.06521 0.01166 0.02960
7.20000 1.05176 -0.01726 -0.02196
7.30000 1.09641 -0.02640 -0.05646
7.40000 1.04341 0.04749 0.03085
7.50000 1.13381 0.18635 0.05456
7.60000 1.01997 0.18336 -0.00237
7.70000 1.09842 0.19137 -0.04252
7.80000 1.06412 0.13914 0.00023
7.90000 1.06282 -0.05863 -0.00805
8.00000 1.09522 -0.15245 -0.00873
8.10000 1.04554 0.14085 0.04481
8.20000 1.11026 0.24472 -0.01253
8.30000 1.08908 0.21683 -0.01356
8.40000 1.01241 0.22185 -0.02883
8.50000 1.11875 -0.05126 -0.03929
8.60000 1.03842 -0.16259 0.00136
8.70000 1.01863 -0.09373 0.03981
8.80000 1.12623 -0.07468 -0.01294
8.90000 0.98565 0.11297 -0.00135
9.00000 1.06921 0.12076 -0.02999
9.10000 1.11295 -0.06025 0.03213
9.20000 0.99036 -0.20383 0.06545
9.30000 1.11169 -0.06991 -0.01748
9.40000 1.04361 0.14406 -0.03056
9.50000 1.10912 0.16652 0.00528
9.60000 1.02604 0.32432 0.08390
9.70000 1.06217 0.20998 -0.05412
9.80000 1.09774 0.15013 0.01010
9.90000 1.09014 0.14531 0.02101
10.00000 1.03348 0.00884 0.00668
10.10000 1.06977 0.10966 0.03500
10.20000 0.99930 0.13999 -0.03951
10.30000 1.08755 0.09507 0.03818
10.40000 1.05804 0.15269 -0.04512
10.50000 1.00922 0.15710 -0.03211
10.60000 1.08298 -0.01064 0.03973
10.70000 1.06033 -0.08357 -0.04026
10.80000 1.02809 -0.09697 0.00630
10.90000 1.09399 -0.00836 0.02611
11.00000 1.03220 0.09668 -0.00349
11.10000 1.10118 0.02728 0.06345
11.20000 1.00557 -0.06463 0.01237
11.30000 1.11188 0.07032 -0.01950
11.40000 1.09433 -0.09950 -0.06697
11.50000 1.00959 -0.21800 0.05663
11.60000 1.13016 -0.12588 0.04423
11.70000 1.02223 0.11330 -0.07445
11.80000 1.11825 0.23042 -0.02166
11.90000 1.03040 0.13239 0.05301
12.00000 1.08905 0.07438 -0.00637
12.10000 1.08217 0.07405 -0.00213
12.20000 1.10409 0.03458 0.01891
12.30000 1.04014 -0.11608 -0.01929
12.40000 1.17106 -0.23170 0.05162
12.50000 1.02273 -0.11918 0.02316
12.60000 1.07334 0.03277 -0.08071
12.70000 1.09331 0.20376 -0.00016
12.80000 1.10107 0.29944 -0.00747
12.90000 1.04001 0.15713 -0.00206
13.00000 1.08753 0.06259 0.00162
13.10000 1.05271 0.09859 -0.01862
13.20000 1.04149 0.17754 -0.00080
13.30000 1.10884 0.14980 0.01773
13.40000 1.03325 0.09451 0.00330
13.50000 1.08261 0.04684 -0.04765
13.60000 1.03890 -0.02603 -0.00744
13.70000 1.08269 -0.09923 -0.01940
13.80000 1.04517 -0.25753 -0.00015
13.90000 0.98422 -0.25347 0.00661
14.00000 1.16238 -0.36409 -0.03125
14.10000 1.06332 -0.17546 0.03572
14.20000 1.03951 -0.15093 -0.04950
14.30000 1.14001 -0.27492 -0.00847
14.40000 1.05651 -0.24767 0.04446
14.50000 1.10925 -0.06256 0.01434
14.60000 1.02360 -0.07151 -0.04755
14.70000 1.04547 -0.07180 0.00016
14.80000 1.10157 -0.00080 0.07146
14.90000 1.07172 -0.03583 -0.04480
15.00000 1.03030 -0.07983 -0.01665
15.10000 1.03467 0.03222 0.01899
15.20000 1.01321 0.12384 -0.00216
15.30000 1.13210 -0.03194 0.01636
15.40000 1.10869 -0.08194 0.03027
15.50000 1.02455 -0.16090 -0.04868
15.60000 1.13079 -0.10458 -0.01115
15.70000 1.04613 0.02830 0.09016
15.80000 1.01468 0.11540 -0.07763
15.90000 1.11138 0.10689 -0.01255
16.00000 1.11230 0.11184 0.00576
16.10000 1.00275 0.15919 0.02992
16.20000 1.12704 0.01604 -0.06769
16.30000 1.09674 -0.12778 0.00369
16.40000 1.04822 0.09363 0.02751
16.50000 1.06897 -0.08147 -0.03254
16.60000 1.10844 -0.12780 -0.02000
16.70000 1.05314 -0.06591 0.06682
16.80000 1.09684 0.07626 0.01024
16.90000 1.03924 0.05943 -0.03978
17.00000 1.08076 0.11824 -0.01759
17.10000 1.09213 -0.10350 0.02477
17.20000 1.03086 -0.35344 -0.02929
17.30000 1.13164 -0.32935 -0.00024
17.40000 1.06061 0.00846 0.02885
17.50000 1.06564 0.10296 -0.04588
17.60000 1.10215 0.27034 -0.03426
17.70000 1.03065 0.24560 0.01808
17.80000 1.10606 0.04213 -0.01843
17.90000 1.03947 -0.00011 -0.04000
18.00000 1.09186 -0.00826 0.05957
18.10000 1.10250 -0.00887 -0.05316
18.20000 1.04615 -0.02979 0.02057
18.30000 1.08628 -0.22281 -0.02761
18.40000 1.02152 -0.33721 0.02396
18.50000 1.11978 -0.17888 0.03737
18.60000 1.05943 -0.14262 -0.10074
18.70000 0.99557 -0.02322 0.02149
18.80000 1.11360 0.05243 0.03758
18.90000 1.07333 -0.12017 -0.03700
19.00000 1.12113 -0.35844 -0.05842
19.10000 1.02551 -0.28728 0.07969
19.20000 1.07636 -0.18599 0.03995
19.30000 1.06684 -0.01982 -0.05423
19.40000 1.07429 0.00558 -0.00513
19.50000 1.10106 0.01205 0.01626
19.60000 1.08380 -0.00062 0.00924
19.70000 1.08430 0.03545 -0.00559
19.80000 1.09483 -0.02464 -0.00428
19.90000 1.08220 -0.05099 0.03629
20.00000 1.04852 -0.31211 0.00153
20.10000 1.06527 -0.27932 -0.00861
20.20000 1.10491 -0.11718 0.03996
20.30000 0.98809 0.09901 0.00080
20.40000 1.06410 0.06983 -0.03099
20.50000 1.11249 -0.12845 -0.01083
20.60000 0.96854 -0.14244 -0.01487
20.70000 1.15396 0.07389 -0.00588
20.80000 1.00557 0.08327 0.02808
20.90000 1.09000 -0.07195 -0.00685
21.00000 1.03469 -0.00966 -0.06754
21.10000 1.12816 0.18003 0.03821
21.20000 0.98686 0.12673 0.06496
21.30000 1.07030 -0.00279 -0.05922
21.40000 1.05485 -0.16776 -0.03646
21.50000 1.03049 -0.06911 0.08005
21.60000 1.11374 -0.21663 -0.00038
21.70000 1.06702 -0.22174 -0.07371
21.80000 1.07983 -0.04521 0.07018
21.90000 1.08734 0.09678 0.03518
22.00000 1.10779 -0.01148 -0.03459
22.10000 1.10136 0.02432 0.02992
22.20000 1.04059 0.01859 -0.03877
22.30000 1.11356 0.05120 -0.01349
22.40000 1.02623 0.05167 0.03234
22.50000 1.12630 -0.08038 0.01847
22.60000 0.97239 0.00165 -0.00531
22.70000 1.16891 0.11447 0.00227
22.80000 0.98300 0.07719 0.04097
22.90000 1.05348 -0.07062 0.05772
23.00000 1.09529 -0.02146 -0.01075
23.10000 0.99076 0.16514 -0.03965
23.20000 1.07035 0.14378 0.04802
23.30000 1.08881 0.09455 -0.02901
23.40000 1.03124 0.01670 0.02215
23.50000 1.04739 -0.21726 0.03308
23.60000 1.08353 -0.19545 -0.06957
23.70000 1.06789 -0.09161 0.01248
23.80000 0.99841 0.04722 0.02402
23.90000 1.10985 0.13890 -0.09906
24.00000 1.02236 -0.09998 0.01125
24.10000 1.07252 -0.12016 0.05059
24.20000 1.18098 -0.01696 -0.01332
24.30000 1.03819 0.09012 -0.06267
24.40000 1.03612 0.04759 -0.05541
24.50000 1.17227 -0.07206 0.06414
24.60000 0.98980 -0.16768 0.01068
24.70000 1.10114 -0.15387 -0.00184
24.80000 1.03683 -0.07735 -0.03358
24.90000 1.04066 0.13942 0.04250
25.00000 1.08041 0.09810 -0.00516
25.10000 1.08073 -0.10740 -0.00203
25.20000 1.03075 -0.26055 -0.06040
25.30000 1.08607 -0.23591 0.05110
25.40000 1.05578 -0.11238 0.00247
25.50000 1.10642 0.01699 -0.00053
25.60000 1.08822 -0.12937 0.02957
25.70000 1.11288 -0.23679 0.04109
25.80000 1.03209 -0.29945 -0.02589
25.90000 1.05333 -0.16200 0.02493
26.00000 1.11189 -0.05208 -0.02264
26.10000 0.97946 0.28684 0.07769
26.20000 1.09526 0.30882 -0.01273
26.30000 1.11520 0.38945 -0.04460
26.40000 1.07773 0.21826 0.00930
26.50000 1.02198 0.10330 -0.01385
26.60000 1.09159 -0.03403 0.02586
26.70000 1.05069 -0.06424 0.00529
26.80000 1.11931 0.11194 0.08465
26.90000 0.97297 0.17875 0.00953
27.00000 1.17412 0.08929 -0.05068
27.10000 1.00252 -0.13115 0.00022
27.20000 1.04910 -0.12884 0.03333
27.30000 1.08611 0.08909 -0.00274
27.40000 1.12259 0.24029 -0.01393
27.50000 0.98707 0.12947 0.00274
27.60000 1.13212 0.01368 0.00207
27.70000 1.01528 -0.03319 0.00769
27.80000 1.09992 -0.13727 -0.00149
27.90000 1.03202 -0.07955 -0.06070
28.00000 1.07555 0.02404 0.00550
28.10000 0.98819 -0.11815 0.02359
28.20000 1.07969 0.05462 -0.03149
28.30000 1.09747 0.19633 -0.02613
28.40000 1.02920 0.10138 0.02216
28.50000 1.11641 0.02093 0.04779
28.60000 1.08026 -0.03356 -0.01556
28.70000 1.07765 -0.12957 0.00843
28.80000 1.10986 -0.08486 -0.01586
28.90000 1.05459 -0.16552 -0.01253
29.00000 1.09780 -0.21023 0.00382
29.10000 1.14141 -0.18375 -0.05606
29.20000 1.00984 -0.02903 0.03867
29.30000 1.06650 0.04976 0.01128
29.40000 1.12156 0.03217 0.00379
29.50000 1.03738 0.03899 0.03405
29.60000 1.12168 -0.09675 -0.01139
29.70000 1.06528 -0.17090 -0.03240
29.80000 1.05679 -0.01280 0.05503
29.90000 1.02166 0.05740 0.01788
30.00000 1.06275 -0.03864 -0.04853
30.10000 1.08140 -0.05795 -0.00239
30.20000 1.00012 -0.01938 -0.00372
30.30000 1.10668 -0.00976 -0.03535
30.40000 1.04205 0.01631 0.01216
30.50000 0.97215 -0.03645 -0.01344
30.60000 1.20653 0.06985 -0.00926
30.70000 0.95975 0.11215 -0.00796
30.80000 1.12708 0.18505 0.06984
30.90000 1.01521 0.21047 -0.04902
31.00000 1.09953 0.09141 0.06403
31.10000 1.02572 0.00362 -0.00112
31.20000 1.08544 -0.00596 -0.06979
31.30000 1.03066 -0.10937 -0.01445
31.40000 1.09367 0.04859 -0.00332
31.50000 1.03534 0.03199 0.01680
31.60000 1.09488 -0.05006 0.03431
31.70000 1.08119 -0.00686 -0.02880
31.80000 1.06321 -0.17864 0.02167
31.90000 0.98557 -0.10654 -0.02061
32.00000 1.17657 0.02958 0.01611
32.10000 1.01889 0.04177 0.01499
32.20000 1.09009 -0.02580 -0.02690
32.30000 1.05604 0.13250 -0.02855
32.40000 1.12318 0.19592 0.05628
32.50000 1.06912 -0.06828 0.03403
32.60000 1.02009 -0.18333 -0.02233
32.70000 1.07258 0.01196 -0.07811
32.80000 1.08593 0.05080 0.10982
32.90000 1.11858 0.00363 0.04715
33.00000 1.06414 -0.05421 -0.05160
33.10000 1.06308 0.00992 -0.00108
33.20000 1.04682 -0.09502 0.03257
33.30000 1.17168 -0.11874 0.03981
33.40000 1.05131 -0.18301 -0.08099
33.50000 1.04111 -0.08446 -0.01511
33.60000 1.12224 0.03071 -0.01196
33.70000 1.01615 0.05805 0.07063
33.80000 1.10378 0.09182 -0.04589
33.90000 1.08660 0.14806 -0.00351
34.00000 1.01981 -0.15313 -0.02777
34.10000 1.14702 -0.22961 -0.01188
34.20000 1.06100 -0.17725 0.00078
34.30000 1.07983 0.11534 0.04441
34.40000 1.10298 0.16229 0.01289
34.50000 1.02598 0.15487 0.00366
34.60000 1.08449 0.10702 -0.01849
34.70000 1.10130 -0.13464 -0.02800
34.80000 1.03806 -0.06052 -0.02414
34.90000 1.08024 -0.14301 -0.02138
35.00000 1.09258 -0.13213 0.03066
35.10000 1.02970 0.01048 0.03115
35.20000 1.08205 0.14021 0.01340
35.30000 1.02838 0.14476 0.01051
35.40000 1.15057 -0.02196 0.00768
35.50000 1.07992 -0.08010 0.06638
35.60000 1.03505 0.09838 -0.05508
35.70000 1.11124 0.23855 0.02063
35.80000 1.09371 -0.00271 0.05703
35.90000 1.07413 0.03272 0.01723
36.00000 1.00389 -0.07225 -0.03252
36.10000 1.06691 -0.06186 0.01255
36.20000 1.08428 -0.05578 0.03270
36.30000 1.03584 0.13399 -0.02654
36.40000 1.00206 0.20464 0.01716
36.50000 1.13095 0.05826 0.05298
36.60000 1.00600 -0.21867 0.03562
36.70000 1.09714 -0.27837 -0.02247
36.80000 1.08685 -0.12876 0.00445
36.90000 1.04960 -0.16083 0.04964
37.00000 1.08078 -0.03834 0.02442
37.10000 1.10493 0.11205 -0.04988
37.20000 1.00278 0.05649 0.04530
37.30000 1.13034 0.03191 -0.01132
37.40000 0.99680 -0.13208 -0.08801
37.50000 1.07576 -0.23926 0.02867
37.60000 1.10848 -0.26691 -0.00480
37.70000 0.98536 -0.13574 0.03523
37.80000 1.11392 -0.15843 -0.01942
37.90000 1.07770 -0.21154 0.00482
38.00000 1.00872 -0.20764 -0.01490
38.10000 1.06726 -0.00544 -0.04683
38.20000 1.06692 0.06498 0.00572
38.30000 1.08636 0.13192 -0.01139
38.40000 1.11130 -0.00667 0.00054
38.50000 1.07080 -0.38652 0.00281
38.60000 1.09530 -0.19298 -0.01654
38.70000 1.02176 0.13467 -0.03788
38.80000 1.14523 0.28652 0.04869
38.90000 1.05069 0.13255 -0.03750
39.00000 1.01415 -0.07685 -0.02194
39.10000 1.09191 -0.05169 0.05269
39.20000 1.05510 0.04704 -0.00896
39.30000 1.06947 0.01825 -0.03020
39.40000 1.00635 -0.06293 0.01514
39.50000 1.05619 0.02849 0.01263
39.60000 1.08817 0.04104 -0.01661
39.70000 1.09320 -0.04775 -0.02356
39.80000 1.05491 0.19271 -0.03810
39.90000 1.08153 0.29589 -0.00802
40.00000 1.05356 0.18798 0.03111
40.10000 1.06576 0.12114 -0.01112
40.20000 1.11331 0.03844 -0.02465
40.30000 1.02281 -0.04249 0.02412
40.40000 1.12121 0.06701 -0.03622
40.50000 1.01679 0.09036 0.03812
40.60000 1.08040 0.17853 0.08603
40.70000 1.07952 0.05704 0.02082
40.80000 1.03361 -0.26891 -0.04956
40.90000 1.08272 -0.38559 -0.03359
41.00000 1.04829 -0.41574 -0.02411
41.10000 1.00682 -0.23142 -0.03447
41.20000 1.11750 -0.06103 0.02020
41.30000 1.02646 0.27213 0.01633
41.40000 1.14310 0.44296 -0.01482
41.50000 0.97582 0.33462 0.03652
41.60000 1.05887 0.09387 0.00350
41.70000 1.15133 0.05932 0.01183
41.80000 0.99028 0.09709 -0.04894
41.90000 1.04263 -0.01820 -0.02381
42.00000 1.06539 -0.01159 0.03403
42.10000 1.11832 0.10922 -0.05876
42.20000 0.96717 0.23519 0.04168
42.30000 1.11589 0.33316 -0.01145
42.40000 1.09377 0.26267 -0.03563
42.50000 1.02568 0.06981 -0.00313
42.60000 1.11670 0.04688 0.02671
42.70000 1.07136 0.09388 -0.01424
42.80000 1.04276 0.07609 0.03049
42.90000 1.02635 0.18950 0.05641
43.00000 1.07798 0.10286 -0.00506
43.10000 1.09607 0.13327 -0.00884
43.20000 1.03728 0.09095 0.00171
43.30000 1.11325 0.13420 0.04331
43.40000 1.03943 0.08741 0.00958
43.50000 1.10925 0.00563 -0.08428
43.60000 1.04326 0.03885 0.00271
43.70000 1.11672 0.03544 0.00787
43.80000 1.04240 0.03585 -0.02184
43.90000 1.05361 -0.07121 -0.04452
44.00000 1.10519 -0.15885 0.02636
44.10000 1.06353 -0.24760 -0.00690
44.20000 1.06667 -0.10884 -0.00358
44.30000 1.12784 0.15250 0.00566
44.40000 1.00695 0.12580 0.03114
44.50000 1.07289 0.11436 -0.01944
44.60000 1.04446 0.13164 -0.07152
44.70000 1.02753 0.19695 0.02628
44.80000 1.11430 0.08990 -0.00357
44.90000 1.08169 -0.03135 -0.01423
45.00000 1.07421 -0.06696 0.02299
45.10000 1.04686 -0.09406 0.02933
45.20000 1.10208 -0.01977 -0.03296
45.30000 1.09296 -0.15014 0.02302
45.40000 1.04210 -0.23561 0.04941
45.50000 1.06558 -0.08802 0.06067
45.60000 1.08743 0.12135 -0.03185
45.70000 1.09743 0.41493 0.02076
45.80000 1.09247 0.30926 -0.00668
45.90000 1.07673 0.17521 -0.02134
46.00000 1.11155 0.03091 -0.03875
46.10000 1.08435 0.00945 0.00632
46.20000 1.06509 0.05790 -0.02220
46.30000 1.07543 0.14861 -0.03180
46.40000 1.10595 -0.00699 -0.00468
46.50000 0.98462 -0.11243 -0.00408
46.60000 1.11621 -0.17266 -0.01442
46.70000 1.00762 -0.07961 0.00342
46.80000 1.07344 0.13307 0.00316
46.90000 1.08107 0.35587 -0.02740
47.00000 1.02781 0.33012 0.03530
47.10000 1.12148 0.17702 -0.01580
47.20000 1.05140 -0.01012 0.01057
47.30000 1.04517 -0.12165 -0.01263
47.40000 1.12805 -0.20519 0.07990
47.50000 1.04872 -0.23657 -0.01429
47.60000 1.10623 -0.06956 -0.05966
47.70000 1.06547 0.20186 0.07296
47.80000 0.99153 0.22977 0.00851
47.90000 1.10976 0.02345 0.00117
48.00000 1.00169 -0.07816 -0.03267
48.10000 1.10762 0.09823 0.03880
48.20000 1.03540 0.15555 -0.02571
48.30000 1.09373 0.02279 -0.00058
48.40000 1.05772 -0.12487 -0.07300
48.50000 1.11286 -0.13385 0.09513
48.60000 1.10469 0.05846 0.03897
48.70000 1.07757 0.29510 -0.07778
48.80000 1.09342 0.25336 -0.04684
48.90000 1.08429 0.05922 0.07349
49.00000 1.03170 -0.18374 0.00124
49.10000 1.08344 -0.27581 0.01528
49.20000 1.06307 -0.05120 -0.03213
49.30000 1.03991 0.15520 0.00584
49.40000 1.10606 0.03525 0.01647
49.50000 1.10651 -0.02005 -0.03512
49.60000 1.03822 -0.02263 -0.01708
49.70000 1.11720 -0.02263 0.03587
49.80000 1.05457 -0.11736 -0.02082
49.90000 1.07305 -0.06868 0.01154
50.00000 1.01732 0.02245 -0.01228
50.10000 1.12066 -0.00132 0.03301
50.20000 0.99081 -0.05942 -0.04735
50.30000 1.07805 -0.12119 0.03973
50.40000 1.03129 -0.08612 -0.03458
50.50000 1.08974 -0.09297 0.06988
50.60000 1.07460 -0.13228 0.07347
50.70000 1.13342 0.04760 -0.03500
50.80000 1.00853 -0.04186 0.02428
50.90000 1.04157 -0.04104 0.02521
51.00000 1.07421 0.18370 0.03327
51.10000 1.06763 0.03086 0.09469
51.20000 1.09558 -0.12741 -0.05459
51.30000 1.07903 -0.18283 -0.02533
51.40000 0.99830 -0.08028 0.03438
51.50000 1.10721 0.10731 0.03971
51.60000 1.10018 0.02184 -0.06217
51.70000 1.15470 -0.06230 0.05350
51.80000 0.96764 -0.12350 0.04749
51.90000 1.10000 -0.24362 -0.11245
52.00000 1.08235 -0.24493 0.03026
52.10000 1.03599 -0.16393 0.05926
52.20000 1.11969 -0.20005 -0.02779
52.30000 0.98540 -0.21001 0.00175
52.40000 1.08933 -0.25257 0.00022
52.50000 1.09644 -0.13901 -0.04928
52.60000 1.07764 -0.22831 0.04866
52.70000 1.06924 -0.21960 0.04638
52.80000 1.04452 -0.23707 -0.07703
52.90000 1.08022 -0.01545 -0.04731
53.00000 1.05935 0.09540 -0.00180
53.10000 1.01419 0.25944 0.05476
53.20000 1.09892 0.24086 -0.04802
53.30000 1.01952 -0.01222 -0.04520
53.40000 1.08688 -0.10849 -0.03418
53.50000 1.05744 -0.03837 0.04588
53.60000 1.05030 -0.02821 -0.00466
53.70000 1.06553 -0.00600 -0.02024
53.80000 1.05574 0.17429 0.01299
53.90000 1.12393 0.39194 0.03401
54.00000 1.02316 0.36237 -0.03492
54.10000 1.07594 0.12576 0.02047
54.20000 1.08864 -0.03249 0.02166
54.30000 1.10030 -0.13704 0.00380
54.40000 1.07022 -0.24957 -0.04738
54.50000 1.03619 -0.25695 0.07314
54.60000 1.10216 -0.19177 -0.01539
54.70000 1.12743 -0.00730 0.00209
54.80000 1.03703 0.18193 0.00288
54.90000 1.07829 0.17066 -0.00883
55.00000 1.07963 0.03457 -0.02129
55.10000 1.07042 0.16446 -0.01295
55.20000 1.02910 0.26672 0.01485
55.30000 1.12846 0.24731 0.01435
55.40000 1.05789 0.22008 0.06307
55.50000 1.07240 -0.05992 -0.05575
55.60000 1.09125 -0.09649 -0.03938
55.70000 1.07813 -0.10463 0.05789
55.80000 1.04177 0.11502 0.01684
55.90000 1.09996 0.23606 -0.04015
56.00000 1.06989 0.20247 0.05966
56.10000 1.00273 0.33301 -0.02300
56.20000 1.10560 0.23379 -0.01272
56.30000 1.07731 -0.02313 -0.01313
56.40000 1.04097 -0.19392 0.02130
56.50000 1.10890 -0.02835 -0.03373
56.60000 1.05480 0.21647 0.01665
56.70000 1.07629 0.22957 0.03493
56.80000 1.09759 0.06428 -0.00058
56.90000 1.10308 0.16088 -0.06642
57.00000 0.99832 0.03159 0.01077
57.10000 1.11989 -0.19231 0.02579
57.20000 1.03331 -0.10922 -0.00032
57.30000 1.09967 0.08978 0.01274
57.40000 1.13345 0.01726 -0.00153
57.50000 1.04532 0.15465 -0.02720
57.60000 1.05893 0.06130 0.03830
57.70000 1.08509 -0.11854 0.04031
57.80000 1.02257 -0.13525 -0.04713
57.90000 1.06796 -0.03434 0.01063
58.00000 1.10721 -0.06863 -0.00958
58.10000 1.05986 -0.15252 0.02281
58.20000 1.04248 -0.29392 -0.01018
58.30000 1.12458 -0.11219 -0.02056
58.40000 1.04163 0.02220 0.00986
58.50000 1.09477 0.11344 -0.03468
58.60000 1.06369 0.05556 0.03720
58.70000 1.07605 0.04087 0.01935
58.80000 1.11207 -0.08899 -0.06346
58.90000 1.08577 -0.18569 0.01359
59.00000 1.10348 0.08354 0.00098
59.10000 1.07304 0.31723 -0.00479
59.20000 1.06502 0.13019 -0.00702
59.30000 1.05683 -0.03768 0.02890
59.40000 1.07779 -0.13455 0.00681
59.50000 1.03678 -0.09592 -0.05818
59.60000 1.15920 -0.10238 -0.00151
59.70000 1.03493 0.01284 -0.02046
59.80000 1.05611 0.02499 0.01817
59.90000 1.11383 -0.11324 0.05883
60.00000 1.09636 -0.19110 -0.04208
60.10000 1.06265 -0.06732 -0.05637
60.20000 1.03829 -0.08867 0.04625
60.30000 1.13290 -0.16880 -0.01333
60.40000 1.04954 -0.14676 -0.03684
60.50000 1.08621 0.11498 0.01343
60.60000 1.06154 0.15338 0.02559
60.70000 1.08107 -0.04667 -0.05621
60.80000 1.08380 -0.27775 0.00674
60.90000 1.08750 -0.28657 0.03395
61.00000 1.04233 -0.13975 -0.02542
61.10000 1.15898 0.00952 -0.01070
61.20000 0.99163 0.20155 0.00400
61.30000 1.12153 0.39187 0.03758
61.40000 1.08369 0.25375 -0.03572
61.50000 1.01600 -0.09943 -0.07814
61.60000 1.16133 -0.10670 0.03571
61.70000 1.01079 -0.13045 0.05468
61.80000 1.04917 -0.18872 -0.05015
61.90000 1.13094 0.03218 -0.01753
62.00000 0.99249 0.38573 0.02391
62.10000 1.12235 0.39656 0.02712
62.20000 1.07565 0.14354 -0.04855
62.30000 1.02736 -0.02117 -0.05485
62.40000 1.12236 -0.07988 0.04515
62.50000 1.02285 0.10708 0.01395
62.60000 1.10914 0.31320 -0.03441
62.70000 1.09431 0.16462 0.05408
62.80000 1.03664 -0.07337 0.02364
62.90000 1.08742 -0.28816 -0.03846
63.00000 1.06083 -0.24921 0.00001
63.10000 1.03890 -0.12162 0.00675
63.20000 1.10010 -0.18622 -0.00180
63.30000 1.05622 -0.08303 -0.03007
63.40000 1.02202 -0.00899 0.05333
63.50000 1.09898 0.00928 0.04217
63.60000 0.99924 0.07549 -0.07431
63.70000 1.08341 0.18245 -0.02669
63.80000 1.12151 0.16778 0.11477
63.90000 1.06879 0.05777 -0.04628
64.00000 1.06137 0.09301 -0.02803
64.10000 1.13225 0.00745 0.04701
64.20000 1.00448 -0.10823 -0.01526
64.30000 1.11061 -0.12586 -0.00768
64.40000 1.11068 -0.04814 -0.00273
64.50000 1.03162 0.10081 -0.05761
64.60000 1.05077 0.29037 -0.04155
64.70000 1.04705 0.12273 0.06283
64.80000 1.05559 -0.08340 0.05843
64.90000 1.05671 -0.05362 -0.09364
65.00000 1.03854 -0.00452 -0.01080
65.10000 1.12244 -0.06415 0.02045
65.20000 1.00444 -0.30331 0.02712
65.30000 1.07054 -0.26132 -0.08246
65.40000 1.08337 -0.08965 0.01611
65.50000 1.01528 0.10071 0.05745
65.60000 1.08711 0.17440 -0.01805
65.70000 1.00414 0.02380 -0.08609
65.80000 1.03757 -0.11473 0.04542
65.90000 1.08886 -0.07088 -0.02261
66.00000 1.05601 -0.28124 0.01021
66.10000 1.01623 -0.16743 -0.01150
66.20000 1.08152 -0.08934 0.04144
66.30000 1.02428 -0.04737 -0.03826
66.40000 1.04623 -0.04533 0.01938
66.50000 1.16879 0.10371 -0.02601
66.60000 1.00655 0.27470 -0.00335
66.70000 1.09786 0.10013 -0.05180
66.80000 1.13321 0.08080 -0.02032
66.90000 0.95812 0.15081 0.00975
67.00000 1.12304 0.06419 0.05481
67.10000 1.06864 -0.02163 0.05865
67.20000 1.07165 -0.12179 -0.01353
67.30000 1.13897 -0.08902 0.01451
67.40000 1.03137 0.16526 0.02666
67.50000 1.09649 0.17280 0.00938
67.60000 1.12672 0.06401 0.00918
67.70000 0.98946 -0.08923 0.03199
67.80000 1.07500 -0.22284 0.03613
67.90000 1.17932 -0.26277 -0.06461
68.00000 1.02156 -0.38585 -0.02628
68.10000 1.07875 -0.31051 0.01701
68.20000 1.15057 -0.00718 0.03423
68.30000 0.98270 -0.00844 -0.01741
68.40000 1.10593 -0.15957 0.01435
68.50000 1.08863 -0.23963 0.00246
68.60000 1.03540 -0.19024 -0.02377
68.70000 1.05737 -0.01453 0.07304
68.80000 1.14315 0.13575 0.02299
68.90000 1.04045 0.18485 -0.02526
69.00000 1.12205 0.08668 -0.00500
69.10000 1.05029 -0.19711 0.01764
69.20000 1.08545 -0.19206 0.01526
69.30000 1.10556 0.22116 0.02940
69.40000 1.00885 0.30696 -0.05356
69.50000 1.12978 0.05455 -0.01299
69.60000 1.02882 -0.04616 0.03336
69.70000 1.07564 -0.05337 -0.00255
69.80000 1.06136 -0.03471 0.00030
69.90000 1.08377 -0.06519 -0.00111
70.00000 1.07377 -0.03175 0.00115
70.10000 1.04863 0.14192 0.02574
70.20000 1.07981 0.14704 -0.05753
70.30000 1.11650 0.06774 0.05108
70.40000 1.01166 -0.02799 -0.00933
70.50000 1.05346 -0.09443 -0.02404
70.60000 1.11964 -0.15280 -0.08161
70.70000 1.03698 0.00796 -0.01275
70.80000 1.10720 0.10289 0.02272
70.90000 0.99692 0.19186 0.00035
71.00000 1.11194 0.01058 0.00698
71.10000 1.06339 -0.18841 -0.02584
71.20000 1.08793 -0.26455 -0.01857
71.30000 1.07853 0.01555 -0.03156
71.40000 1.07318 0.18512 0.00281
71.50000 1.06166 0.15179 0.07821
71.60000 1.08455 -0.04749 -0.03350
71.70000 1.01822 -0.17854 -0.05955
71.80000 1.16576 -0.17624 0.08059
71.90000 1.03152 -0.09206 -0.01222
72.00000 1.12611 -0.12025 -0.01474
72.10000 1.01393 -0.18155 0.01960
72.20000 1.04746 -0.01204 0.03270
72.30000 1.09098 0.06755 -0.05511
72.40000 0.98929 -0.01088 -0.01283
72.50000 1.13096 -0.04056 0.02090
72.60000 1.12653 0.07416 -0.02407
72.70000 0.99637 0.23473 -0.00207
72.80000 1.10149 0.16943 0.00722
72.90000 1.07248 -0.09024 -0.01191
73.00000 1.06678 -0.26155 -0.01785
73.10000 1.11682 -0.10848 0.02218
73.20000 0.98932 0.08884 0.01600
73.30000 1.08127 -0.06443 0.01702
73.40000 1.08793 -0.28582 -0.00742
73.50000 1.02475 -0.30571 0.00337
73.60000 1.05384 -0.42750 -0.00530
73.70000 1.04671 -0.22448 -0.00712
73.80000 1.03673 0.01841 -0.00475
73.90000 1.06953 0.13198 -0.02355
74.00000 1.09037 0.12122 -0.00610
74.10000 1.01025 -0.04245 0.01342
74.20000 1.14797 0.04048 0.06472
74.30000 1.05202 0.00136 0.00182
74.40000 1.05650 -0.06787 0.01596
74.50000 1.08787 -0.09340 -0.04465
74.60000 1.07821 -0.20669 -0.01718
74.70000 1.09836 -0.17008 -0.03035
74.80000 1.07055 0.14408 -0.00262
74.90000 1.08841 0.19517 -0.00942
75.00000 1.07634 -0.03731 0.01627
75.10000 1.06893 -0.23499 0.00639
75.20000 1.05161 -0.23034 -0.04853
75.30000 1.12880 -0.19635 0.06277
75.40000 1.05293 -0.21681 -0.00828
75.50000 1.09969 -0.35154 -0.06237
75.60000 1.05785 -0.26142 0.03032
75.70000 1.10213 0.13313 0.04181
75.80000 1.06684 0.36781 -0.00610
75.90000 1.04592 0.19576 -0.02370
76.00000 1.09850 0.06499 -0.00632
76.10000 1.02275 -0.02936 -0.02234
76.20000 1.03507 -0.20502 -0.06299
76.30000 1.06813 -0.17730 0.01312
76.40000 1.05969 -0.02902 0.00639
76.50000 1.08184 0.02679 -0.05281
76.60000 1.06969 0.07830 -0.03040
76.70000 1.03728 -0.06006 -0.00880
76.80000 1.08822 -0.01875 -0.03373
76.90000 0.97724 0.07497 0.02121
77.00000 1.11735 0.01555 -0.01743
77.10000 1.08801 -0.09265 -0.01737
77.20000 0.99680 -0.06015 0.03970
77.30000 1.05659 0.16855 0.00808
77.40000 1.11270 0.02649 -0.02071
77.50000 0.98617 -0.16298 -0.03136
77.60000 1.11921 -0.15075 0.04363
77.70000 1.13453 -0.07270 -0.01117
77.80000 1.00500 -0.23897 -0.03996
77.90000 1.16771 -0.15194 -0.05423
78.00000 1.08784 0.05488 -0.00176
78.10000 1.10479 0.25127 0.00326
78.20000 1.09267 0.00836 0.01986
78.30000 1.02779 -0.09720 0.01399
78.40000 1.06217 -0.10058 0.01725
78.50000 1.08800 -0.27283 0.02377
78.60000 1.01642 -0.15732 0.05450
78.70000 1.09199 0.01922 -0.00714
78.80000 1.01496 0.13036 0.01013
78.90000 1.03580 -0.09910 0.03025
79.00000 1.05185 -0.29349 -0.02845
79.10000 1.05090 -0.25504 -0.04161
79.20000 1.10879 0.01201 0.01425
79.30000 0.98206 0.24901 0.00307
79.40000 1.07712 0.18097 -0.04652
79.50000 1.07598 0.18591 -0.02415
79.60000 1.04129 0.20259 -0.00076
79.70000 1.02731 0.16349 -0.04490
79.80000 1.09641 -0.04391 0.04760
79.90000 1.04427 -0.23140 0.01307
80.00000 1.14629 -0.17861 0.00607
80.10000 1.02560 -0.10281 -0.00547
80.20000 1.06341 0.04616 0.03035
80.30000 1.10218 0.05091 -0.05654
80.40000 1.06370 0.11351 0.03622
80.50000 1.07190 -0.07341 0.01110
80.60000 1.09406 0.03937 -0.00940
80.70000 1.07850 0.11291 0.02743
80.80000 0.99874 -0.18363 0.00911
80.90000 1.14010 -0.17032 -0.01772
81.00000 1.00567 -0.00531 0.00881
81.10000 1.07532 0.03069 -0.02754
81.20000 1.04638 0.02942 0.01744
81.30000 1.08536 0.06912 0.01571
81.40000 1.10838 0.11234 0.01188
81.50000 1.06218 0.13531 -0.00433
81.60000 1.06971 0.23760 -0.02228
81.70000 1.08612 0.26619 -0.01197
81.80000 1.10383 0.05614 -0.01737
81.90000 1.07371 -0.05530 -0.03317
82.00000 1.10158 -0.04714 0.04479
82.10000 1.05219 -0.03735 0.01907
82.20000 1.07235 -0.05658 0.00466
82.30000 1.05053 0.05656 0.05028
82.40000 1.08062 0.09993 -0.04347
82.50000 1.01274 0.07769 -0.04201
82.60000 1.09041 0.03065 0.00152
82.70000 1.04002 0.03538 0.00497
82.80000 1.10160 0.08851 0.01818
82.90000 1.01675 0.00781 0.03144
83.00000 1.06148 0.01225 -0.02201
83.10000 1.11028 -0.04846 0.02028
83.20000 1.07073 -0.25038 -0.01969
83.30000 1.03745 -0.24832 -0.00933
83.40000 1.11746 -0.00160 -0.02299
83.50000 1.10408 0.18944 0.01161
83.60000 1.01400 0.20154 0.01382
83.70000 1.13233 0.00298 -0.02748
83.80000 1.02670 -0.05196 -0.03217
83.90000 1.12882 -0.14764 0.06710
84.00000 1.09567 -0.14794 -0.03037
84.10000 1.00811 -0.15842 -0.04258
84.20000 1.12990 -0.08953 0.04136
84.30000 1.03748 0.23993 0.00060
84.40000 1.07058 0.06183 -0.01896
84.50000 1.07900 -0.03965 0.02488
84.60000 1.03964 -0.02368 0.05790
84.70000 1.09482 0.05355 -0.05561
84.80000 1.04225 0.09100 -0.00217
84.90000 1.13640 0.11716 -0.02116
85.00000 1.04498 0.06175 0.00927
85.10000 1.08329 0.04362 -0.01620
85.20000 1.05391 0.03996 -0.00147
85.30000 1.07673 -0.06425 -0.04762
85.40000 1.08337 -0.11275 0.04779
85.50000 1.00496 -0.12504 -0.05811
85.60000 1.10829 -0.12459 -0.04386
85.70000 1.05888 -0.05570 -0.00804
85.80000 1.15779 -0.05342 0.02566
85.90000 1.04297 -0.03140 -0.01441
86.00000 1.04227 0.11474 -0.05381
86.10000 1.10009 -0.01495 0.03437
86.20000 1.04167 -0.06914 0.02563
86.30000 1.05366 -0.14710 0.00166
86.40000 1.05752 -0.12777 -0.02282
86.50000 1.05423 0.20672 0.02409
86.60000 1.04843 0.12993 0.02691
86.70000 1.10695 -0.06053 -0.05326
86.80000 1.06450 -0.04608 0.04965
86.90000 1.05748 0.22742 -0.05818
87.00000 1.09203 0.37235 -0.03594
87.10000 1.06022 0.02956 0.03858
87.20000 1.10240 -0.28240 0.00946
87.30000 0.99933 -0.13588 -0.04115
87.40000 1.05828 -0.06593 -0.00196
87.50000 1.13143 -0.01504 0.03114
87.60000 1.03452 -0.03900 0.05270
87.70000 1.06037 -0.14974 0.00306
87.80000 1.13414 -0.02739 -0.00057
87.90000 1.07992 -0.00003 0.00608
88.00000 1.00439 -0.04659 -0.01406
88.10000 1.06292 0.07320 -0.04900
88.20000 1.17031 0.12167 0.02239
88.30000 1.04491 0.07172 -0.00215
88.40000 1.06635 0.04204 -0.00794
88.50000 1.07342 0.06041 -0.02460
88.60000 1.05315 0.08711 0.03967
88.70000 1.09759 0.06998 -0.06450
88.80000 1.01534 -0.11409 0.01502
88.90000 1.03988 -0.24147 0.02214
89.00000 1.12779 -0.12310 -0.02176
89.10000 1.07822 0.16125 -0.01294
89.20000 1.04466 0.17407 0.07021
89.30000 1.10140 0.08632 -0.04902
89.40000 1.03303 -0.17533 -0.03660
89.50000 1.05796 -0.14121 0.01186
89.60000 1.11525 -0.11370 -0.01939
89.70000 1.03193 -0.16943 0.00127
89.80000 1.04518 -0.06702 -0.02168
89.90000 1.16078 -0.14211 0.04073
90.00000 1.05804 -0.10472 -0.03556
90.10000 1.02630 -0.07681 -0.00432
90.20000 1.12234 -0.05083 -0.00536
90.30000 1.02842 -0.10958 -0.02564
90.40000 1.11264 0.00938 -0.01041
90.50000 1.02472 0.06993 -0.00933
90.60000 1.18048 0.04576 0.00963
90.70000 1.02252 0.10085 -0.04224
90.80000 1.12585 0.03227 -0.03022
90.90000 1.02019 -0.01206 0.01461
91.00000 1.10274 0.13240 0.01313
91.10000 1.04604 0.13055 -0.04377
91.20000 1.03661 0.07600 0.00996
91.30000 1.08120 -0.03400 0.01257
91.40000 1.06574 -0.10594 -0.01062
91.50000 1.02926 -0.08131 0.00855
91.60000 1.08521 0.00269 -0.01076
91.70000 0.98481 0.05909 -0.03919
91.80000 1.11017 -0.04596 0.01809
91.90000 1.11042 -0.00025 0.02115
92.00000 1.03398 0.07533 -0.05390
92.10000 1.07643 0.06112 0.00489
92.20000 1.03393 -0.00476 0.02820
92.30000 1.11415 0.01217 0.00532
92.40000 1.00471 0.10637 -0.00200
92.50000 1.07888 0.12997 0.01188
92.60000 1.05672 0.16884 -0.03448
92.70000 1.08558 -0.01647 -0.03978
92.80000 1.10169 -0.20131 0.07420
92.90000 1.04865 -0.27590 0.02720
93.00000 1.02879 -0.25803 -0.03096
93.10000 1.03869 -0.21997 0.06976
93.20000 1.15267 -0.11936 -0.00456
93.30000 1.03049 0.11457 0.04841
93.40000 1.06440 0.15748 -0.07208
93.50000 1.10975 0.17415 -0.00422
93.60000 1.04616 0.02125 0.07517
93.70000 1.09750 -0.07558 -0.06874
93.80000 1.05925 -0.06427 0.03426
93.90000 1.00639 0.02827 0.06160
94.00000 1.08937 0.20775 0.01658
94.10000 1.05927 0.30146 0.02708
94.20000 1.06252 0.24086 -0.07031
94.30000 1.09392 0.06685 -0.00828
94.40000 1.04816 0.02751 0.08230
94.50000 1.04859 0.17077 -0.02589
94.60000 1.06834 0.21297 -0.01785
94.70000 1.11548 0.31356 -0.01541
94.80000 0.98832 0.20947 0.04366
94.90000 1.13367 0.02745 -0.02397
95.00000 1.07605 -0.16345 -0.02757
95.10000 0.98924 0.03989 0.07934
95.20000 1.10947 0.03210 0.01541
95.30000 1.04649 -0.10853 -0.03241
95.40000 1.11896 -0.23920 0.04662
95.50000 1.06103 -0.21530 -0.02771
95.60000 1.03976 -0.20306 -0.01496
95.70000 1.09532 -0.11530 -0.05013
95.80000 1.03251 0.01063 -0.02249
95.90000 1.04407 0.17598 0.05111
96.00000 1.08032 0.09986 -0.00448
96.10000 1.06975 0.01110 -0.00597
96.20000 1.11032 -0.04426 0.01130
96.30000 1.06322 -0.04726 -0.00317
96.40000 1.04001 -0.03723 -0.02101
96.50000 1.07169 0.12935 0.00126
96.60000 1.01761 0.15709 0.01977
96.70000 1.11097 0.16733 0.00126
96.80000 1.11308 0.08895 -0.03420
96.90000 1.01891 -0.01444 0.02730
97.00000 1.05044 -0.13083 -0.01672
97.10000 1.03076 -0.24278 -0.01368
97.20000 1.07276 -0.13120 -0.03217
97.30000 0.97586 -0.08136 -0.02289
97.40000 1.12071 -0.01489 0.01482
97.50000 1.05044 0.01080 0.03187
97.60000 1.10598 0.04607 -0.06712
97.70000 1.05803 -0.14767 -0.01164
97.80000 1.08943 -0.31406 0.04013
97.90000 1.05249 -0.30672 -0.00093
98.00000 1.13246 -0.06460 -0.01765
98.10000 1.00448 0.21972 -0.00357
98.20000 1.11317 0.25588 -0.00928
98.30000 1.01959 0.10509 0.01950
98.40000 1.09185 -0.07725 -0.04683
98.50000 1.09106 -0.14793 0.01869
98.60000 1.06648 -0.09281 0.01206
98.70000 1.07822 -0.16691 -0.02915
98.80000 1.09095 -0.23986 0.04650
98.90000 1.04587 -0.31257 0.01442
99.00000 1.05880 -0.14007 -0.02293
99.10000 1.01646 0.09149 0.04180
99.20000 1.04300 0.14471 0.03073
99.30000 1.09481 0.00643 0.00524
99.40000 1.06816 0.02630 0.03675
99.50000 1.12316 0.07965 -0.02389
99.60000 1.06429 0.05876 -0.03679
99.70000 1.02308 0.04698 0.04190
99.80000 1.10718 0.01116 0.05020
99.90000 1.06812 -0.07560 -0.04385
100.00000 1.06446 -0.36061 0.00064
100.10000 1.08340 -0.54768 0.03215
100.20000 1.06077 -0.34390 0.00148
100.30000 1.05643 -0.00273 -0.01931
100.40000 1.05831 0.15619 0.05897
100.50000 1.15647 0.13510 -0.00911
100.60000 0.94435 -0.01026 0.00831
100.70000 1.15948 -0.13647 -0.01948
100.80000 1.03866 -0.15202 0.00716
100.90000 1.10231 -0.13122 0.00642
101.00000 1.05473 -0.11082 -0.00587
101.10000 1.08115 -0.00794 -0.05107
101.20000 1.07615 0.05887 0.02487
101.30000 1.04527 -0.02676 0.03108
101.40000 0.99745 -0.12357 -0.05621
101.50000 1.12040 -0.33837 0.00922
101.60000 1.03296 -0.55608 -0.01548
101.70000 1.11148 -0.57024 -0.00043
101.80000 1.03882 -0.26512 0.01486
101.90000 1.10547 -0.03906 -0.09416
102.00000 1.06387 0.02675 0.01404
102.10000 1.00463 -0.08534 0.01854
102.20000 1.08379 -0.06200 0.00511
102.30000 1.12469 0.13398 -0.00886
102.40000 1.02827 0.18956 0.03323
102.50000 1.15478 0.05436 0.00922
102.60000 1.06199 0.05332 -0.00686
102.70000 1.11219 0.08662 -0.00346
102.80000 1.05992 0.27725 -0.02105
102.90000 1.09305 0.24798 -0.00507
103.00000 1.05109 0.19394 0.04755
103.10000 1.02735 0.19363 -0.04800
103.20000 1.14234 -0.06378 -0.08489
103.30000 1.01013 -0.15942 0.05676
103.40000 1.11568 -0.22052 0.02388
103.50000 1.09835 -0.05946 -0.03370
103.60000 1.00735 0.10304 -0.01887
103.70000 1.12143 0.13162 -0.00398
103.80000 1.09043 0.08485 0.02551
103.90000 1.02216 -0.03572 0.01476
104.00000 1.16226 -0.16331 0.01006
104.10000 1.05635 -0.13691 -0.03330
104.20000 1.03598 -0.18900 0.06334
104.30000 1.06681 -0.10367 -0.01724
104.40000 1.09962 0.08853 -0.11707
104.50000 1.05372 0.00351 0.04065
104.60000 1.06414 0.14829 0.04071
104.70000 1.14742 0.21948 -0.09038
104.80000 1.07952 0.16799 -0.00857
104.90000 1.00854 0.13842 -0.03095
105.00000 1.10039 0.16866 -0.00938
105.10000 1.02704 0.14676 0.03887
105.20000 1.11685 0.16994 0.00705
105.30000 1.07493 0.12705 -0.03716
105.40000 0.97530 0.07543 -0.02657
105.50000 1.13221 0.09791 0.01550
105.60000 1.01643 0.15991 0.03829
105.70000 1.04551 0.13625 0.00615
105.80000 1.11047 -0.00032 0.00469
105.90000 1.03548 -0.09668 0.06192
106.00000 1.04117 -0.11477 -0.02364
106.10000 1.04833 0.04548 -0.02519
106.20000 1.07286 0.02537 -0.00130
106.30000 1.04479 0.18945 -0.02438
106.40000 1.13337 0.17698 -0.02864
106.50000 1.02207 0.15726 0.00632
106.60000 1.07748 0.26328 0.06133
106.70000 1.11569 0.12514 0.01895
106.80000 1.01881 -0.01330 -0.03347
106.90000 1.09123 0.03971 0.03817
107.00000 1.03160 0.09636 0.00198
107.10000 1.06378 0.08269 0.00987
107.20000 1.05921 0.01264 -0.02164
107.30000 1.10690 0.00684 -0.00282
107.40000 1.04859 -0.00567 0.03268
107.50000 1.00938 -0.01253 0.01426
107.60000 1.10907 -0.01441 -0.00389
107.70000 1.10142 0.12175 -0.02871
107.80000 1.02042 0.19836 0.03850
107.90000 1.08521 0.12408 -0.02226
108.00000 1.03825 0.06265 -0.04101
108.10000 1.07063 -0.11426 0.01032
108.20000 1.04851 -0.30106 -0.00456
108.30000 1.08352 -0.12872 -0.00001
108.40000 1.08070 0.20455 -0.01061
108.50000 1.11441 0.14941 -0.03218
108.60000 1.03493 0.11394 -0.00433
108.70000 1.07297 0.29843 0.02126
108.80000 1.12503 0.17926 -0.04147
108.90000 1.02142 0.01677 0.01833
109.00000 1.04369 -0.04430 0.03233
109.10000 1.07858 -0.08292 -0.03895
109.20000 1.02283 -0.04211 -0.01285
109.30000 1.08078 -0.02835 0.00013
109.40000 1.10139 0.12958 -0.03005
109.50000 1.05886 0.28233 -0.06201
109.60000 1.05738 0.07840 0.03364
109.70000 1.08121 -0.05721 -0.00604
109.80000 0.98866 -0.12006 -0.03493
109.90000 1.10929 -0.08703 0.01785
110.00000 1.02186 0.00089 -0.02663
110.10000 1.09850 0.06652 0.01515
110.20000 1.07789 -0.00498 0.04265
110.30000 1.10658 -0.06607 -0.05689
110.40000 1.06587 0.08084 -0.00455
110.50000 1.06721 0.13346 0.02114
110.60000 1.09952 0.02000 0.00267
110.70000 1.08682 -0.18219 0.02996
110.80000 1.06443 -0.21185 -0.03647
110.90000 1.06743 -0.13095 -0.00411
111.00000 1.05289 0.11198 -0.04560
111.10000 1.06501 0.37084 0.04530
111.20000 1.11443 0.43088 -0.01384
111.30000 1.02867 0.18803 -0.02186
111.40000 1.14605 -0.10953 0.06172
111.50000 1.06118 -0.27901 -0.08069
111.60000 1.00717 -0.18065 0.05453
111.70000 1.15782 0.06065 -0.00926
111.80000 1.04946 0.01962 -0.01088
111.90000 1.07006 0.06508 0.02168
112.00000 1.09465 -0.01188 0.04841
112.10000 1.05785 -0.00270 0.00088
112.20000 1.09656 -0.02161 -0.01689
112.30000 1.03709 0.15737 0.04112
112.40000 1.06659 0.17180 0.00727
112.50000 1.09407 0.15875 0.00147
112.60000 1.06135 0.10763 -0.02533
112.70000 1.07984 0.03009 0.00106
112.80000 1.08953 -0.03001 -0.01646
112.90000 1.05716 -0.05648 -0.05102
113.00000 1.05199 -0.15010 0.00680
113.10000 1.06111 -0.06753 -0.03047
113.20000 1.05152 0.01256 0.02646
113.30000 1.06618 0.00616 0.03474
113.40000 1.04551 -0.01355 -0.05017
113.50000 1.04355 -0.03984 0.02803
113.60000 1.05622 -0.08945 0.00677
113.70000 1.08101 -0.09890 -0.01797
113.80000 1.05400 -0.18653 -0.01232
113.90000 1.01375 -0.09217 0.02918
114.00000 1.12128 -0.07644 -0.04269
114.10000 1.05526 -0.04698 -0.02202
114.20000 1.05964 -0.06001 0.00710
114.30000 1.18584 -0.19600 0.03323
114.40000 0.96896 -0.23894 0.00874
114.50000 1.10473 -0.14165 0.00959
114.60000 1.09560 -0.13369 0.00620
114.70000 1.03903 -0.08353 -0.00375
114.80000 1.08431 -0.01090 0.03401
114.90000 1.06073 0.02668 -0.01978
115.00000 1.05699 -0.02934 0.04239
115.10000 1.00841 -0.15739 -0.00845
115.20000 1.05456 -0.13760 -0.00427
115.30000 1.11270 -0.07051 0.00468
115.40000 1.07211 -0.00176 0.01001
115.50000 1.03383 0.15291 0.01128
115.60000 1.10187 0.10324 -0.04501
115.70000 1.03638 -0.02195 0.00868
115.80000 1.03508 -0.09679 0.03476
115.90000 1.09326 -0.07999 0.00638
116.00000 1.05722 0.03085 -0.07117
116.10000 1.07299 -0.03730 -0.00161
116.20000 1.06567 -0.07509 -0.01974
116.30000 1.01285 -0.07873 0.01858
116.40000 1.04992 -0.08696 0.01732
116.50000 1.12752 -0.01813 -0.07221
116.60000 0.99740 0.24624 0.02272
116.70000 1.12030 0.19693 0.08744
116.80000 0.97241 0.25423 -0.00336
116.90000 1.14187 0.22257 -0.06584
117.00000 1.04348 -0.05653 0.02609
117.10000 1.06220 0.00701 0.00576
117.20000 1.06481 0.22788 -0.02809
117.30000 1.08504 0.16482 -0.02285
117.40000 1.08493 0.14220 0.00534
117.50000 1.04703 0.24921 0.02539
117.60000 1.09790 0.03888 -0.07343
117.70000 1.09190 -0.11150 0.00137
117.80000 1.04149 -0.21452 0.06941
117.90000 1.04374 -0.26443 0.02169
118.00000 1.09605 -0.19869 0.02810
118.10000 1.09250 0.01163 -0.03953
118.20000 1.04201 0.10445 0.00578
118.30000 1.05836 -0.00457 0.00502
118.40000 1.09088 -0.00732 0.06069
118.50000 1.07199 -0.04274 -0.01622
118.60000 1.04089 -0.02840 -0.03773
118.70000 1.10813 0.05156 -0.00094
118.80000 0.95450 -0.00094 0.05226
118.90000 1.10519 0.12346 -0.04125
119.00000 1.03204 0.10067 -0.03733
119.10000 1.08162 0.08212 -0.00349
119.20000 1.04101 0.14247 0.04349
119.30000 1.10115 0.05976 -0.03833
119.40000 1.07278 0.11121 0.05264
119.50000 1.02935 0.08198 -0.08468
119.60000 1.14473 0.05992 -0.05283
119.70000 1.00063 0.09082 -0.00111
119.80000 1.03589 0.05362 0.01928
119.90000 1.07421 -0.05691 0.01254
120.00000 1.09671 -0.12303 -0.04126
120.10000 1.03032 -0.27636 -0.01809
120.20000 1.08482 -0.24678 0.08546
120.30000 1.06207 -0.10187 0.00865
120.40000 1.07675 0.08304 -0.01680
120.50000 1.08977 0.25810 0.05824
120.60000 1.05167 0.26067 0.01795
120.70000 1.12625 -0.05541 -0.04398
120.80000 1.05927 -0.37116 0.03768
120.90000 1.02861 -0.41326 0.03482
121.00000 1.12725 -0.18099 0.00139
121.10000 1.02155 0.05348 -0.02129
121.20000 1.08503 0.14198 0.01384
121.30000 1.12594 0.23321 -0.04999
121.40000 1.00166 0.10798 0.03124
121.50000 1.11939 0.27157 -0.00390
121.60000 1.00381 0.32007 0.02501
121.70000 1.09596 0.18834 -0.04231
121.80000 1.06745 0.12001 0.02134
121.90000 1.05349 0.11844 -0.00854
122.00000 1.06966 0.12431 -0.00642
122.10000 1.03811 -0.02310 -0.01848
122.20000 1.05079 -0.01503 -0.02770
122.30000 1.04928 -0.10285 0.05772
122.40000 1.08881 -0.06245 0.00114
122.50000 1.04666 0.04041 -0.02934
122.60000 1.14155 0.14160 -0.02222
122.70000 1.05394 0.10259 0.02053
122.80000 1.12965 0.08265 -0.02387
122.90000 0.97521 0.05917 -0.06200
123.00000 1.09990 0.19835 0.01359
123.10000 1.02902 0.18947 0.04913
123.20000 1.08543 -0.03162 0.00889
123.30000 1.03660 0.09817 0.01415
123.40000 1.08964 0.24379 0.07515
123.50000 1.02495 0.09798 0.01950
123.60000 1.11804 -0.07255 0.04779
123.70000 1.08550 -0.11009 -0.02582
123.80000 1.01247 -0.07990 0.01520
123.90000 1.14807 -0.16095 -0.00305
124.00000 1.01759 -0.21496 0.01313
124.10000 1.11865 -0.17949 0.03723
124.20000 1.07338 -0.01425 -0.00189
124.30000 1.04915 0.03938 -0.05832
124.40000 1.04279 -0.06750 -0.03140
124.50000 1.06432 -0.00521 0.02572
124.60000 1.05286 0.03830 0.02563
124.70000 1.09527 0.02943 -0.02636
124.80000 1.01320 -0.22098 0.00224
124.90000 1.08733 -0.10339 0.01763
125.00000 1.13016 0.11750 -0.03010
125.10000 1.06232 0.13066 -0.01376
125.20000 1.02226 0.14203 0.02291
125.30000 1.08662 0.17376 0.00529
125.40000 1.06085 0.32615 -0.01212
125.50000 1.04000 0.12961 0.02712
125.60000 1.06790 -0.06999 -0.04206
125.70000 1.10610 -0.11187 0.01596
125.80000 1.01021 -0.04964 -0.00548
125.90000 1.10788 0.02114 -0.00459
126.00000 1.13253 0.02739 -0.03136
126.10000 1.06070 0.00539 -0.00894
126.20000 1.02062 0.00507 0.03080
126.30000 1.11042 0.07670 0.06121
126.40000 1.05108 -0.05795 0.00098
126.50000 1.04294 -0.10430 -0.07335
126.60000 1.09676 0.03444 0.01786
126.70000 1.11561 -0.06731 -0.00414
126.80000 1.04476 -0.01401 -0.02297
126.90000 1.03356 0.03211 0.00650
127.00000 1.09718 0.22285 0.00168
127.10000 1.07039 0.27937 0.00147
127.20000 1.11825 0.21361 0.00121
127.30000 1.01855 0.10073 0.00132
127.40000 1.16294 -0.06005 -0.02991
127.50000 1.05139 -0.14717 -0.04051
127.60000 1.03850 0.00025 0.04508
127.70000 1.07369 0.14499 0.01813
127.80000 1.09405 0.21642 -0.03504
127.90000 1.02422 0.00849 0.01057
128.00000 1.13489 -0.05255 0.00130
128.10000 1.01056 -0.04241 0.04925
128.20000 1.13554 0.14274 -0.02934
128.30000 1.04223 0.22641 -0.02916
128.40000 1.07145 0.12491 0.06452
128.50000 1.07800 0.09506 0.00659
128.60000 1.02641 -0.11594 0.03244
128.70000 1.20071 -0.08158 -0.00711
128.80000 1.03449 -0.19842 0.02258
128.90000 1.09665 -0.14958 0.01141
129.00000 1.05768 -0.02294 0.01160
129.10000 1.02754 0.18605 0.03871
129.20000 1.09237 0.11865 -0.04845
129.30000 0.98982 -0.18332 -0.02880
129.40000 1.11175 -0.34931 0.05794
129.50000 1.03460 -0.10805 -0.02418
129.60000 1.04441 0.18127 0.02917
129.70000 1.11406 0.05492 -0.01543
129.80000 1.03830 -0.00004 -0.02377
129.90000 1.10395 0.07878 -0.04537
130.00000 1.08187 0.13624 0.00205
130.10000 1.04171 0.31329 -0.00610
130.20000 1.07542 0.04569 -0.01250
130.30000 1.06858 -0.17724 -0.04923
130.40000 1.08342 -0.17444 -0.01414
130.50000 1.01942 -0.10361 0.08470
130.60000 1.18819 0.07707 -0.00194
130.70000 1.00447 0.12909 -0.01114
130.80000 1.11801 0.10245 0.00910
130.90000 1.08401 0.00304 -0.02729
131.00000 1.02228 -0.06733 -0.00117
131.10000 1.09001 -0.12173 -0.01512
131.20000 1.01877 -0.07954 0.01158
131.30000 1.07978 0.26980 -0.03110
131.40000 1.06624 0.30179 0.01592
131.50000 0.99876 -0.01532 0.01937
131.60000 1.14749 -0.28324 -0.01546
131.70000 1.01775 -0.17338 -0.02874
131.80000 1.11311 0.03989 -0.02258
131.90000 1.05249 0.20943 0.05434
132.00000 0.97699 0.14867 0.02586
132.10000 1.10209 -0.02598 -0.02264
132.20000 1.02778 -0.07354 0.02620
132.30000 1.09502 0.12410 0.02590
132.40000 1.13403 0.05927 -0.06168
132.50000 1.08338 0.04562 0.04741
132.60000 1.06821 0.09132 0.05968
132.70000 1.10453 -0.03791 -0.03831
132.80000 1.09566 -0.14089 0.04188
132.90000 1.07920 -0.18409 0.05881
133.00000 1.12026 0.04729 -0.04001
133.10000 1.05957 0.14692 -0.01583
133.20000 1.07232 0.29051 0.00807
133.30000 1.05872 0.15065 -0.01679
133.40000 1.09276 0.06348 -0.04197
133.50000 1.01724 0.12809 -0.01118
133.60000 1.04504 0.14966 0.01374
133.70000 1.07334 -0.08821 -0.00992
133.80000 1.11381 -0.34035 0.02715
133.90000 1.02530 -0.23094 -0.02905
134.00000 1.08940 0.01764 0.02082
134.10000 1.00896 0.18836 0.02945
134.20000 1.14315 0.36525 0.01343
134.30000 1.03300 0.23694 -0.05559
134.40000 1.04580 0.05603 0.02727
134.50000 1.06529 0.06398 -0.00667
134.60000 1.07210 0.02765 -0.02140
134.70000 1.05555 -0.02757 0.00116
134.80000 1.04937 -0.01096 -0.05658
134.90000 1.03699 -0.11166 0.03534
135.00000 1.09632 -0.17673 0.03649
135.10000 1.06359 -0.06807 -0.07908
135.20000 1.06192 0.03222 0.00896
135.30000 1.04764 0.10287 0.02343
135.40000 1.04790 -0.01875 0.03092
135.50000 1.04781 -0.13837 -0.05363
135.60000 1.04048 -0.13862 -0.03496
135.70000 1.08969 -0.05225 0.02535
135.80000 1.10655 -0.08559 0.01356
135.90000 1.02360 -0.06367 0.00776
136.00000 1.02026 0.01573 -0.00032
136.10000 1.20271 0.11640 0.04545
136.20000 0.97176 0.02628 -0.00531
136.30000 1.09594 -0.09050 -0.00022
136.40000 1.10894 -0.21120 0.02293
136.50000 0.98546 -0.24551 -0.01743
136.60000 1.15986 -0.35559 -0.03807
136.70000 0.99083 -0.13225 0.02231
136.80000 1.15502 0.25947 0.02573
136.90000 1.05974 0.30065 0.00454
137.00000 1.03024 0.19048 0.06454
137.10000 1.10396 0.01746 -0.06230
137.20000 1.11957 0.01678 0.00409
137.30000 1.01291 -0.05139 0.06586
137.40000 1.05665 -0.04084 -0.00872
137.50000 1.14159 -0.11423 -0.03553
137.60000 1.06561 -0.14597 0.10200
137.70000 1.09976 -0.20971 0.02893
137.80000 1.08551 -0.14729 -0.10932
137.90000 1.12260 -0.21795 0.00930
138.00000 1.04358 -0.26634 0.06082
138.10000 1.09226 -0.14559 0.01217
138.20000 1.10074 0.02517 0.05076
138.30000 0.96613 0.13743 -0.00602
138.40000 1.12786 0.17626 -0.05018
138.50000 1.04343 0.12843 -0.03180
138.60000 1.10803 0.02964 0.05233
138.70000 1.08169 -0.08798 -0.00257
138.80000 1.04999 -0.11978 -0.05570
138.90000 1.14108 -0.09532 -0.00503
139.00000 0.98570 -0.02641 0.01172
139.10000 1.08435 0.02946 -0.01776
139.20000 1.11329 -0.00579 0.00491
139.30000 1.10356 -0.08914 -0.04103
139.40000 1.07094 -0.22226 0.01512
139.50000 1.12573 -0.21022 0.00399
139.60000 1.05213 -0.20947 -0.00061
139.70000 1.08002 -0.20539 -0.00848
139.80000 1.13229 -0.07218 0.01496
139.90000 1.05204 0.05214 0.02083
140.00000 1.11132 0.15055 -0.03929
140.10000 1.12566 0.00303 -0.03438
140.20000 1.04355 0.11156 0.03197
140.30000 1.09123 0.21254 0.00242
140.40000 1.07973 0.27847 0.00240
140.50000 1.01067 0.07696 -0.00603
140.60000 1.06607 -0.00641 0.00269
140.70000 1.04878 -0.00580 -0.02489
140.80000 1.17123 0.11734 0.00673
140.90000 1.01255 0.12128 0.02294
141.00000 1.12116 0.03703 -0.01837
141.10000 1.04787 0.11881 -0.06081
141.20000 1.03432 0.13679 0.02758
141.30000 1.14897 0.23579 0.03085
141.40000 1.00961 0.35490 -0.03752
141.50000 1.08532 0.06583 -0.02389
141.60000 1.03075 -0.12048 0.02888
141.70000 1.12241 -0.21145 -0.01433
141.80000 1.02277 -0.27340 -0.02463
141.90000 1.15171 -0.12345 0.02558
142.00000 1.05003 0.04902 -0.00963
142.10000 1.03225 0.18033 -0.06047
142.20000 1.05400 0.08960 0.07640
142.30000 1.09456 -0.09351 -0.05884
142.40000 1.02730 -0.28903 0.02366
142.50000 1.16712 -0.18759 -0.00582
142.60000 0.98549 -0.06183 0.01639
142.70000 1.11935 0.04215 0.00188
142.80000 1.06723 0.14909 -0.03232
142.90000 1.05028 0.20371 0.00806
143.00000 1.11664 0.09848 -0.05541
143.10000 1.03536 -0.01493 0.01635
143.20000 1.06458 0.02534 0.02653
143.30000 1.11275 0.02320 -0.02619
143.40000 1.05515 0.10922 0.01541
143.50000 1.05527 0.11900 0.04833
143.60000 1.15495 0.00848 -0.05553
143.70000 1.02981 -0.14209 0.03948
143.80000 1.09403 0.05657 -0.01454
143.90000 1.01342 0.10250 0.00959
144.00000 1.09152 0.26612 0.01891
144.10000 1.12085 0.45289 0.00658
144.20000 0.99802 0.29743 -0.04989
144.30000 1.13414 -0.01977 0.00281
144.40000 1.00596 0.03737 0.00732
144.50000 1.11380 0.06829 -0.08350
144.60000 1.10438 0.02612 0.02898
144.70000 1.01844 0.05596 -0.03290
144.80000 1.03739 0.21072 -0.07559
144.90000 1.12485 0.19061 0.01910
145.00000 1.08017 0.00161 -0.02276
145.10000 1.05523 0.01945 0.01128
145.20000 1.11895 0.12078 -0.04461
145.30000 1.03528 0.25880 -0.02193
145.40000 1.04888 0.21699 0.01031
145.50000 1.14996 0.18171 -0.01937
145.60000 1.04908 0.16935 -0.00324
145.70000 1.06807 0.24931 -0.00378
145.80000 1.11581 0.16551 0.02415
145.90000 1.00412 0.19529 -0.00885
146.00000 1.10071 0.20875 0.07838
146.10000 1.09798 0.11847 -0.00906
146.20000 1.05350 0.12702 -0.04577
146.30000 1.00799 0.14820 0.00614
146.40000 1.09819 0.33312 0.00305
146.50000 1.03820 0.15987 0.05181
146.60000 1.02337 -0.02053 -0.00394
146.70000 1.16098 -0.07354 -0.04161
146.80000 1.00312 -0.07396 0.03424
146.90000 1.14680 -0.01760 0.02486
147.00000 1.05626 0.07086 -0.00680
147.10000 1.08534 0.03126 -0.05642
147.20000 1.03772 0.21629 0.06106
147.30000 1.09885 0.20034 0.02522
147.40000 1.01202 -0.07891 -0.01339
147.50000 1.06928 -0.19570 -0.01123
147.60000 1.10138 -0.28758 0.05199
147.70000 1.00424 -0.28054 -0.04328
147.80000 1.11642 -0.21421 -0.03423
147.90000 1.04395 0.04785 0.02881
148.00000 1.01780 0.09645 0.08631
148.10000 1.03411 0.04931 -0.00774
148.20000 1.10032 0.12538 -0.01325
148.30000 0.99638 0.03642 0.04117
148.40000 1.06970 -0.08271 0.02119
148.50000 1.14922 -0.07562 -0.02749
148.60000 1.01179 -0.12268 0.04535
148.70000 1.10762 -0.07865 -0.01888
148.80000 1.01906 0.12158 0.05563
148.90000 1.13671 0.05086 -0.03955
149.00000 1.03979 -0.15952 0.03906
149.10000 1.09013 -0.11398 -0.00437
149.20000 1.10612 0.12084 -0.01738
149.30000 1.06842 0.12479 0.00913
149.40000 1.05118 0.03880 -0.00182
149.50000 1.11498 0.04191 0.03413
149.60000 1.03098 0.09552 0.02080
149.70000 1.05559 -0.00064 0.01153
149.80000 1.08702 -0.10167 -0.02426
149.90000 1.07718 -0.12818 -0.01299
150.00000 1.02003 -0.07308 0.04105
150.10000 1.15332 -0.16420 0.01507
150.20000 0.97584 -0.23599 -0.02944
150.30000 1.06181 -0.08327 0.00410
150.40000 1.16449 0.09080 0.03634
150.50000 1.02912 0.12776 0.02017
150.60000 1.10024 0.13530 -0.00180
150.70000 1.03875 0.13205 0.00570
150.80000 1.04924 -0.17945 -0.02198
150.90000 1.13822 -0.17381 -0.01883
151.00000 1.06831 -0.13318 0.05345
151.10000 1.08350 -0.25820 0.00079
151.20000 1.04305 -0.13660 -0.01856
151.30000 1.08584 -0.11045 -0.00877
151.40000 1.04654 -0.00306 0.07243
151.50000 1.07683 0.07719 -0.07768
151.60000 1.14622 0.01230 -0.01920
151.70000 1.00019 -0.05566 -0.02295
151.80000 1.08071 -0.17695 -0.00973
151.90000 1.12590 -0.19244 -0.04319
152.00000 1.07031 -0.03340 -0.04446
152.10000 1.01790 0.24708 0.02086
152.20000 1.09598 0.17221 -0.00794
152.30000 1.05510 -0.01652 -0.04049
152.40000 1.02383 -0.11835 0.05471
152.50000 1.10430 -0.16262 0.01864
152.60000 1.07894 -0.09412 -0.02170
152.70000 1.06885 -0.09483 0.03684
152.80000 1.08987 -0.05007 -0.01707
152.90000 1.07948 -0.02028 -0.00140
153.00000 1.00550 -0.03601 0.01136
153.10000 1.11451 -0.02551 -0.00421
153.20000 1.05358 0.07337 0.02968
153.30000 1.13697 0.12093 0.00036
153.40000 1.08858 0.10996 0.00563
153.50000 1.03242 0.08846 0.00599
153.60000 1.12327 0.05783 0.05337
153.70000 1.08446 0.04329 -0.03257
153.80000 1.02936 -0.00218 -0.03970
153.90000 1.10421 -0.05513 0.02527
154.00000 1.01320 0.02146 0.00645
154.10000 1.17459 0.15151 -0.05477
154.20000 0.97137 0.25636 -0.02906
154.30000 1.06340 0.34243 0.06305
154.40000 1.11693 0.11158 0.06948
154.50000 1.06028 -0.08526 -0.05822
154.60000 1.09877 -0.12994 0.05826
154.70000 1.07858 -0.22773 0.02022
154.80000 1.05858 -0.12449 -0.04527
154.90000 1.05641 0.15353 0.04578
155.00000 1.09007 0.28954 -0.04526
155.10000 1.06231 0.34434 0.00806
155.20000 1.01857 0.34031 0.01176
155.30000 1.10337 0.31506 -0.03717
155.40000 1.00551 0.10065 -0.01408
155.50000 1.08599 -0.14941 0.04433
155.60000 1.06703 -0.26750 -0.02854
155.70000 1.08411 -0.02605 -0.06258
155.80000 1.07634 0.08713 0.07354
155.90000 1.12217 -0.04174 0.00571
156.00000 1.00135 -0.29206 0.01864
156.10000 1.08071 -0.15345 -0.03112
156.20000 1.08776 0.02843 -0.03839
156.30000 1.06618 0.09285 0.02735
156.40000 1.01397 -0.02059 -0.00877
156.50000 1.09173 -0.01853 0.00610
156.60000 1.12532 0.00722 0.02778
156.70000 1.01589 -0.08983 0.00727
156.80000 1.09090 -0.25292 -0.06222
156.90000 1.11208 -0.25245 0.02246
157.00000 0.92206 -0.09498 0.05544
157.10000 1.17251 -0.01389 -0.06261
157.20000 1.04519 -0.16454 0.00008
157.30000 1.06188 -0.18241 0.01140
157.40000 1.08054 -0.08513 0.00208
157.50000 1.05890 0.03815 0.06612
157.60000 1.07245 0.02728 -0.04020
157.70000 1.08178 -0.00806 -0.08836
157.80000 1.07601 -0.10035 0.08624
157.90000 1.00056 -0.03693 -0.00741
158.00000 1.05565 -0.06858 -0.02882
158.10000 1.08301 -0.03672 -0.00348
158.20000 1.04933 -0.03743 0.04598
158.30000 1.06938 -0.08188 0.01114
158.40000 1.03816 0.01356 -0.01873
158.50000 1.14111 0.08002 -0.04354
158.60000 1.04675 0.06264 0.01900
158.70000 1.06686 0.01416 0.00482
158.80000 1.09313 0.02325 -0.00505
158.90000 1.04016 -0.00701 -0.00126
159.00000 1.05086 -0.00415 0.06383
159.10000 1.07329 -0.06914 -0.00919
159.20000 1.04718 -0.05272 -0.00159
159.30000 1.07653 0.08324 0.01399
159.40000 1.03726 0.22143 -0.06959
159.50000 1.11659 0.24484 -0.01627
159.60000 1.01768 0.02818 0.09229
159.70000 1.12249 -0.19890 -0.01567
159.80000 0.99527 -0.13995 -0.03009
159.90000 1.01730 0.02985 -0.00229
160.00000 1.15145 0.00629 0.02145
160.10000 1.00024 0.02847 0.06625
160.20000 1.04107 -0.15605 -0.04227
160.30000 1.13184 -0.34372 -0.02437
160.40000 1.07154 -0.23751 0.03960
160.50000 1.07930 -0.05206 0.01170
160.60000 1.03639 0.10820 0.02926
160.70000 1.07161 0.15812 -0.01237
160.80000 1.13134 -0.04887 -0.02549
160.90000 1.05273 -0.09764 0.01596
161.00000 1.06112 -0.02832 0.01309
161.10000 1.01792 -0.01047 -0.06846
161.20000 1.05033 -0.05893 -0.06035
161.30000 1.17608 -0.22465 0.09742
161.40000 1.07081 -0.28576 0.00877
161.50000 1.03874 0.04162 -0.02184
161.60000 1.13607 0.07350 0.04742
161.70000 1.03322 -0.03688 -0.05626
161.80000 1.06729 0.01455 -0.01262
161.90000 1.02111 -0.08687 0.06160
162.00000 1.11230 -0.03679 -0.00205
162.10000 1.04117 0.22307 0.03333
162.20000 1.08434 0.27240 0.02076
162.30000 1.03518 0.07320 -0.02492
162.40000 1.07379 -0.11243 0.00061
162.50000 1.06751 -0.18170 0.04395
162.60000 1.01204 -0.15607 -0.03441
162.70000 1.08118 0.01752 -0.00006
162.80000 1.10257 -0.00112 -0.05122
162.90000 0.99890 -0.12719 0.00606
163.00000 1.12565 -0.19038 0.05890
163.10000 1.02362 -0.12169 -0.05125
163.20000 1.09471 0.20185 0.00328
163.30000 1.09258 0.13894 0.03380
163.40000 0.98610 0.01561 -0.06072
163.50000 1.09535 -0.01161 -0.04355
163.60000 1.06441 0.07715 0.00594
163.70000 1.12575 0.25616 -0.02173
163.80000 1.03141 0.07911 0.00079
163.90000 1.12321 -0.12576 0.04685
164.00000 1.12269 -0.27821 -0.05601
164.10000 1.06220 -0.07568 0.01478
164.20000 1.06711 0.18442 0.06406
164.30000 0.99809 0.14791 -0.00125
164.40000 1.11220 0.02750 -0.01317
164.50000 1.04388 -0.12544 0.00171
164.60000 1.08365 -0.00182 -0.04808
164.70000 1.12808 0.18322 -0.00945
164.80000 1.11510 -0.04157 0.00147
164.90000 1.00911 -0.15229 -0.01340
165.00000 1.11248 -0.13007 0.03036
165.10000 1.12060 -0.03282 0.04290
165.20000 1.00313 0.03420 -0.07496
165.30000 1.05778 -0.24320 0.01297
165.40000 1.08350 -0.19700 0.08937
165.50000 1.04742 0.00154 -0.08259
165.60000 1.11863 0.09691 0.00359
165.70000 1.05864 0.14683 0.01958
165.80000 1.08895 -0.08603 0.00820
165.90000 1.11166 -0.31766 -0.00268
166.00000 0.97979 -0.30434 0.04641
166.10000 1.10425 -0.23700 -0.00678
166.20000 1.06814 0.02204 -0.03758
166.30000 1.05184 0.04956 -0.00209
166.40000 1.09937 -0.08543 -0.02391
166.50000 1.00228 -0.13398 0.01787
166.60000 1.09998 -0.08460 0.01374
166.70000 1.07062 0.08927 -0.04832
166.80000 1.10267 -0.13562 -0.01610
166.90000 1.03594 -0.01508 0.03484
167.00000 1.04400 0.17600 0.04280
167.10000 1.13656 0.03974 -0.01630
167.20000 0.99788 0.09004 -0.02743
167.30000 1.16710 -0.00862 0.04008
167.40000 1.04001 -0.01891 0.04867
167.50000 1.12630 0.07602 -0.02917
167.60000 1.09084 0.09699 -0.01549
167.70000 1.07769 0.11136 0.01864
167.80000 1.10371 -0.05655 -0.00877
167.90000 1.06109 -0.17228 0.02096
168.00000 1.01244 -0.07388 -0.06515
168.10000 1.15079 -0.05508 0.00916
168.20000 1.00501 0.00715 -0.01412
168.30000 1.09471 0.01350 0.03448
168.40000 1.04556 -0.01896 -0.02524
168.50000 1.04019 0.04520 -0.07135
168.60000 1.05697 0.03533 -0.04621
168.70000 1.11965 0.09441 0.04603
168.80000 1.04533 0.01697 -0.02335
168.90000 1.12790 0.03862 0.09071
169.00000 0.99947 -0.06645 0.01076
169.10000 1.13844 -0.04739 -0.06767
169.20000 1.01189 0.07179 -0.01085
169.30000 1.11421 0.00200 0.04295
169.40000 1.03888 -0.02758 -0.03696
169.50000 1.06091 -0.12467 -0.07507
169.60000 1.11276 -0.14109 0.05801
169.70000 1.07375 -0.04686 -0.04616
169.80000 1.07422 0.07215 0.02227
169.90000 1.04446 0.09178 0.04936
170.00000 1.08169 0.28629 -0.04196
170.10000 1.01879 0.12116 -0.02454
170.20000 1.11708 -0.16969 0.06670
170.30000 1.02980 -0.18102 0.02672
170.40000 1.10268 -0.11679 -0.02941
170.50000 1.10139 0.03906 -0.01675
170.60000 1.04627 -0.02507 0.05180
170.70000 1.06980 0.02923 0.03462
170.80000 1.11291 -0.11151 -0.03427
170.90000 1.04425 -0.08467 0.02187
171.00000 1.06592 -0.12673 -0.01528
171.10000 1.11595 -0.07259 0.00429
171.20000 1.11426 0.01261 0.03988
171.30000 1.09122 0.24457 0.00294
171.40000 1.04378 0.18395 0.01307
171.50000 1.08762 0.00460 0.00873
171.60000 1.05718 -0.08382 0.00624
171.70000 1.06328 -0.09431 -0.06715
171.80000 1.01099 -0.08649 -0.04604
171.90000 1.17094 -0.22545 0.01976
172.00000 0.99074 -0.08547 -0.01718
172.10000 1.12506 -0.00585 0.00766
172.20000 1.05770 0.16729 0.00286
172.30000 0.99955 0.12057 -0.04262
172.40000 1.12717 0.20284 0.00163
172.50000 0.98485 0.10503 0.02083
172.60000 1.16662 0.06939 0.02414
172.70000 1.04505 -0.03153 -0.02564
172.80000 1.11356 -0.04294 0.03419
172.90000 1.08222 0.00835 -0.01990
173.00000 1.05595 0.24424 -0.05056
173.10000 1.09745 0.27718 -0.00491
173.20000 1.11107 0.29617 0.01983
173.30000 1.09054 0.24192 0.03525
173.40000 1.04238 0.13542 0.03194
173.50000 1.12897 0.23331 -0.01972
173.60000 1.05808 0.42326 -0.04303
173.70000 1.04158 0.30830 0.03718
173.80000 1.11257 -0.00248 -0.03370
173.90000 1.02578 -0.15171 -0.01796
174.00000 1.05848 -0.12075 0.01925
174.10000 1.03554 -0.09020 -0.01986
174.20000 1.08223 -0.00892 -0.01170
174.30000 1.06779 0.21339 0.02728
174.40000 1.04957 0.21542 0.04910
174.50000 0.99881 0.03983 -0.01546
174.60000 1.05154 -0.03865 -0.01842
174.70000 1.13415 -0.10689 0.00647
174.80000 1.04579 -0.09970 0.01158
174.90000 1.08096 -0.25651 0.02241
175.00000 1.05591 -0.14958 -0.04271
175.10000 1.07663 0.03198 -0.05217
175.20000 1.06455 0.17253 0.00844
175.30000 1.06010 0.07449 0.06282
175.40000 1.08689 -0.08830 -0.02505
175.50000 1.03656 -0.12571 -0.01160
175.60000 1.09134 0.02478 0.06232
175.70000 1.09062 0.16032 -0.05440
175.80000 1.01566 0.19677 0.00347
175.90000 1.07787 0.17054 0.01769
176.00000 1.08995 -0.03422 -0.04426
176.10000 1.07877 0.01990 -0.00424
176.20000 1.08786 0.21599 -0.03925
176.30000 1.05464 0.11296 -0.02047
176.40000 0.99339 0.07242 0.04948
176.50000 1.14441 0.21154 -0.06558
176.60000 1.00481 0.01270 0.00454
176.70000 1.03696 0.01932 0.04155
176.80000 1.08261 0.07844 -0.03599
176.90000 1.00764 0.06848 -0.00241
177.00000 1.07265 -0.00799 -0.01218
177.10000 1.08373 -0.11626 0.00683
177.20000 1.02467 -0.20013 0.02131
177.30000 1.06487 -0.14431 -0.04605
177.40000 1.03317 -0.08152 -0.02014
177.50000 1.14180 -0.02952 -0.02017
177.60000 1.08659 0.07341 0.00370
177.70000 1.03450 0.23330 0.04360
177.80000 1.06679 0.14391 -0.02444
177.90000 1.07034 0.05726 0.01450
178.00000 1.03861 0.00428 0.03474
178.10000 1.11172 -0.18388 0.01744
178.20000 1.06713 -0.02562 -0.05604
178.30000 1.05170 0.08617 0.00339
178.40000 1.11586 0.02506 0.04284
178.50000 1.05895 -0.03059 0.01987
178.60000 1.07961 0.00548 -0.03064
178.70000 0.99137 0.22486 0.06045
178.80000 1.16122 0.26230 -0.00738
178.90000 0.97795 -0.08193 -0.02921
179.00000 1.10367 -0.28565 0.00007
179.10000 1.00621 -0.05247 0.08057
179.20000 1.09752 0.42658 0.02764
179.30000 1.04787 0.40821 -0.00421
179.40000 1.05364 0.12849 -0.09220
179.50000 1.06911 -0.16060 0.02197
179.60000 1.13066 -0.09791 -0.02155
179.70000 1.09361 -0.00227 -0.03643
179.80000 1.05152 0.18175 0.00605
179.90000 1.06610 0.00372 0.04570
180.00000 1.07787 -0.14440 -0.01811
180.10000 1.10877 -0.07337 -0.02025
180.20000 1.04083 0.12205 0.04364
180.30000 1.09847 0.21311 -0.00325
180.40000 1.09133 0.32371 -0.02229
180.50000 1.03292 0.16573 0.01520
180.60000 1.05928 0.07680 -0.01219
180.70000 1.06617 -0.05709 -0.00441
180.80000 1.14280 0.00681 -0.01166
180.90000 0.94391 0.05140 -0.02878
181.00000 1.07084 0.02412 0.03243
181.10000 1.14532 0.01830 -0.02777
181.20000 0.98491 -0.00757 -0.04164
181.30000 1.13247 -0.05013 0.02992
181.40000 1.02129 -0.20919 0.02159
181.50000 1.09116 -0.05891 -0.11566
181.60000 1.09849 -0.00170 0.01105
181.70000 1.08155 -0.11825 0.05567
181.80000 1.03834 -0.09767 0.00461
181.90000 1.04291 -0.11056 -0.00984
182.00000 1.08305 0.06153 -0.02025
182.10000 1.01531 0.51986 -0.07873
182.20000 1.13639 0.72498 0.01798
182.30000 1.07032 0.39927 0.03620
182.40000 1.05319 -0.03279 -0.07151
182.50000 1.07569 -0.10661 -0.00559
182.60000 1.01993 0.01738 0.02664
182.70000 1.08921 -0.06061 -0.00067
182.80000 1.07510 -0.10783 -0.03076
182.90000 1.03987 0.01991 -0.00615
183.00000 1.07937 -0.00746 -0.01764
183.10000 1.11238 -0.13280 0.00904
183.20000 1.08298 -0.12914 0.02902
183.30000 1.02037 -0.12928 0.01276
183.40000 1.13860 -0.12969 -0.03111
183.50000 1.06007 0.03557 0.03451
183.60000 1.01623 -0.01244 -0.02492
183.70000 1.09684 0.06523 -0.03212
183.80000 1.06751 -0.10353 0.00629
183.90000 1.09088 -0.27304 0.01858
184.00000 1.03083 -0.28506 0.03785
184.10000 1.03561 0.03237 0.02513
184.20000 1.11587 0.00678 -0.00806
184.30000 1.01988 0.02791 0.02741
184.40000 1.11976 0.16242 0.00053
184.50000 1.11118 0.14749 0.03007
184.60000 1.06022 0.09450 -0.00664
184.70000 1.09196 -0.00663 0.01030
184.80000 1.06969 -0.02447 -0.05346
184.90000 1.06080 -0.03126 -0.01189
185.00000 1.04930 -0.03599 0.07526
185.10000 1.10435 0.00478 -0.03164
185.20000 1.04709 0.00226 -0.00131
185.30000 1.11656 0.12656 0.02071
185.40000 1.08191 0.10057 0.03324
185.50000 1.10010 -0.02680 -0.03951
185.60000 1.08960 -0.16908 0.01419
185.70000 1.07198 -0.43251 -0.02069
185.80000 1.08274 -0.42216 0.00557
185.90000 1.06354 -0.12670 0.00979
186.00000 1.10917 0.11857 -0.09734
186.10000 1.14527 0.11265 0.02767
186.20000 0.98855 -0.01693 0.01414
186.30000 1.14547 0.05564 -0.03908
186.40000 1.07923 0.12897 -0.02260
186.50000 1.03113 0.18080 0.03557
186.60000 1.09023 0.16676 -0.02237
186.70000 1.14510 0.06660 -0.03598
186.80000 1.01498 -0.07516 0.09898
186.90000 1.07801 -0.11920 0.04332
187.00000 1.05002 -0.08127 -0.03060
187.10000 1.08125 -0.01716 -0.01631
187.20000 1.03443 0.12522 0.05903
187.30000 1.08981 0.25991 0.03396
187.40000 1.05730 0.16642 -0.02591
187.50000 1.16499 0.01543 -0.00271
187.60000 1.00455 -0.01672 0.03433
187.70000 1.11928 0.01144 -0.05720
187.80000 0.98864 -0.01662 -0.00602
187.90000 1.12847 -0.08212 -0.00003
188.00000 1.00232 -0.06567 0.03823
188.10000 1.13676 0.06948 0.00655
188.20000 1.00191 0.16327 -0.00901
188.30000 1.11237 0.10889 0.01452
188.40000 1.01385 0.01305 0.05433
188.50000 1.09589 0.07960 -0.05623
188.60000 1.03608 0.11695 -0.02986
188.70000 1.14407 0.21068 -0.02530
188.80000 1.02345 0.08456 0.08045
188.90000 1.03387 -0.03804 -0.03677
189.00000 1.13688 0.05367 -0.03998
189.10000 1.05573 0.04125 -0.00823
189.20000 1.08071 -0.15131 0.03148
189.30000 1.06196 -0.33353 0.01259
189.40000 1.08080 -0.25036 0.00370
189.50000 1.04334 -0.17108 -0.00786
189.60000 1.10036 0.05323 0.01378
189.70000 1.09859 0.23133 0.06468
189.80000 1.09566 0.30306 -0.04967
189.90000 1.06217 0.26133 -0.05467
190.00000 1.06444 0.18260 0.03225
190.10000 1.07911 -0.00495 0.00421
190.20000 1.08005 -0.28466 -0.00413
190.30000 1.06027 -0.12814 -0.03691
190.40000 1.03585 0.08161 0.01811
190.50000 1.09543 0.24308 0.03125
190.60000 1.05176 0.15481 0.02313
190.70000 1.09824 0.00397 -0.08192
190.80000 1.12229 -0.14666 0.06498
190.90000 1.09456 -0.19095 -0.02038
191.00000 1.06496 -0.09259 0.01088
191.10000 1.04471 0.05060 -0.01341
191.20000 1.04866 -0.00723 -0.03431
191.30000 1.07010 -0.02269 0.03362
191.40000 1.07355 0.08188 0.02797
191.50000 1.04573 0.26179 0.02180
191.60000 1.10050 0.40850 -0.02383
191.70000 1.04040 0.39479 0.01424
191.80000 1.06615 0.25891 0.02906
191.90000 1.12089 -0.03762 -0.02781
192.00000 1.01190 -0.11334 -0.00330
192.10000 1.07424 0.03382 0.04485
192.20000 1.05757 -0.07015 -0.07171
192.30000 1.09033 -0.19701 0.03125
192.40000 1.04880 -0.14084 -0.00022
192.50000 1.04557 -0.25378 0.01761
192.60000 1.11802 -0.44733 0.01993
192.70000 1.02508 -0.24746 0.02622
192.80000 1.08951 0.20280 -0.07696
192.90000 1.06784 0.31559 0.01623
193.00000 1.05951 0.07152 0.05293
193.10000 1.06652 -0.19726 0.02970
193.20000 1.07158 -0.43397 -0.03849
193.30000 1.05052 -0.24380 0.11739
193.40000 1.04990 -0.08788 -0.00963
193.50000 1.05705 -0.18803 -0.07695
193.60000 1.08909 -0.22242 0.04125
193.70000 1.09054 -0.04220 -0.01159
193.80000 0.99207 0.04298 -0.02048
193.90000 1.11071 -0.03977 -0.00837
194.00000 1.05298 -0.06277 -0.00085
194.10000 1.05925 0.06475 0.02324
194.20000 1.11551 0.06361 0.01518
194.30000 1.04640 -0.04224 0.00793
194.40000 1.11239 -0.08969 -0.03986
194.50000 1.07233 -0.17908 0.00598
194.60000 0.98157 -0.27444 0.00242
194.70000 1.11423 -0.17092 -0.00760
194.80000 1.02515 0.02141 -0.06661
194.90000 1.11337 0.26150 0.00380
195.00000 1.06904 0.33204 -0.00669
195.10000 1.06976 0.20395 -0.04086
195.20000 0.99681 0.08053 0.00722
195.30000 1.13191 -0.04796 -0.01142
195.40000 1.02134 -0.16897 0.04300
195.50000 1.07090 -0.15883 -0.00388
195.60000 1.07746 -0.16158 -0.05303
195.70000 1.02877 -0.04839 0.00551
195.80000 1.11829 -0.01215 0.04847
195.90000 1.04462 -0.12597 -0.00663
196.00000 1.07290 -0.26897 -0.05010
196.10000 1.11809 -0.37264 -0.03215
196.20000 1.06853 -0.22601 -0.01062
196.30000 0.99548 -0.01567 0.03420
196.40000 1.11455 -0.03520 -0.01438
196.50000 1.05669 0.04907 0.03351
196.60000 1.08994 0.15305 -0.01773
196.70000 1.10205 0.21297 0.01582
196.80000 1.10521 0.18241 0.04211
196.90000 1.08339 0.30867 0.06171
197.00000 1.09595 0.16597 -0.03904
197.10000 1.00475 0.06206 -0.05496
197.20000 1.10051 0.03166 -0.00841
197.30000 1.08417 0.14247 0.04593
197.40000 1.03313 0.34737 0.01632
197.50000 1.11833 0.22789 -0.07658
197.60000 0.97660 -0.10889 0.03457
197.70000 1.12670 -0.14036 0.01747
197.80000 1.08137 -0.01807 0.01335
197.90000 1.06676 0.02566 -0.04164
198.00000 1.09163 -0.16413 0.00082
198.10000 1.03326 -0.07367 -0.01010
198.20000 1.07204 -0.08056 -0.01918
198.30000 1.03442 -0.03759 0.04963
198.40000 1.08132 0.08079 -0.01926
198.50000 1.09391 0.06907 -0.01922
198.60000 1.03966 0.21625 -0.01666
198.70000 1.06847 0.27153 -0.03656
198.80000 1.09640 0.24643 -0.00747
198.90000 1.10166 0.01628 -0.01032
199.00000 1.00344 0.01389 -0.00102
199.10000 1.12438 0.06676 0.05071
199.20000 1.06711 -0.05128 -0.00634
199.30000 1.05650 -0.14303 -0.02338
199.40000 1.10169 -0.24384 0.04100
199.50000 1.09183 -0.24019 0.04510
199.60000 1.05575 0.05400 -0.04589
199.70000 1.10097 0.07220 -0.00949
199.80000 0.99817 -0.22230 0.03377
199.90000 1.05903 -0.26332 -0.04382
200.00000 1.06743 -0.12179 -0.04903
200.10000 1.06883 -0.13217 0.03345
200.20000 1.08676 0.01399 0.00191
200.30000 1.03217 0.16647 -0.01812
200.40000 1.09640 0.18162 0.04957
200.50000 1.04535 -0.10345 0.00147
200.60000 1.11076 -0.22936 -0.01474
200.70000 1.01680 -0.15587 -0.03126
200.80000 1.05101 0.05223 0.04171
200.90000 1.06193 0.10387 0.01225
201.00000 1.08488 0.07281 -0.05180
201.10000 1.05991 0.04706 0.01717
201.20000 1.07883 -0.15037 0.07942
201.30000 1.04354 -0.18811 -0.05288
201.40000 1.12076 -0.26505 0.00799
201.50000 1.01125 -0.22993 0.03871
201.60000 1.07053 -0.16568 0.06443
201.70000 1.08544 -0.06514 -0.07320
201.80000 1.09962 -0.16959 0.00237
201.90000 1.08294 -0.30567 -0.02169
202.00000 1.06670 -0.28059 0.00364
202.10000 1.04989 -0.20052 0.01398
202.20000 1.10515 -0.22308 -0.01621
202.30000 1.03663 -0.10591 0.00085
202.40000 1.11424 -0.00991 -0.00921
202.50000 1.08779 -0.03664 -0.04260
202.60000 1.07597 -0.23019 0.03243
202.70000 1.07522 -0.23747 -0.05514
202.80000 1.07444 -0.23136 -0.01423
202.90000 1.01280 -0.16408 0.04380
203.00000 1.09209 -0.06585 0.01024
203.10000 1.06166 0.03102 -0.01723
203.20000 1.03119 0.17777 -0.04578
203.30000 1.09420 0.20406 -0.00453
203.40000 1.07513 0.04177 -0.01155
203.50000 1.09482 -0.10788 0.03580
203.60000 1.05283 -0.05047 -0.07585
203.70000 1.10352 0.09696 -0.02765
203.80000 1.08749 0.14118 0.01673
203.90000 1.02645 0.11618 0.00214
204.00000 1.15190 0.05108 -0.00693
204.10000 1.03451 0.02817 -0.05077
204.20000 1.08413 0.20167 -0.02872
204.30000 1.02569 0.35488 0.02761
204.40000 1.08007 0.24352 -0.03437
204.50000 1.08329 -0.01170 0.04613
204.60000 1.02091 -0.21361 0.03339
204.70000 1.08572 -0.11204 0.00474
204.80000 1.03092 -0.03103 -0.03776
204.90000 1.09132 0.18085 -0.00323
205.00000 1.09260 0.27680 0.02106
205.10000 1.01957 0.35158 0.01364
205.20000 1.11897 0.20077 -0.04183
205.30000 1.00902 0.04811 0.04103
205.40000 1.15912 0.01614 0.01376
205.50000 1.02652 0.00126 -0.02526
205.60000 1.13102 -0.11650 0.01168
205.70000 0.98572 -0.05628 -0.01127
205.80000 1.07446 -0.12070 0.01922
205.90000 1.02987 -0.13194 0.00691
206.00000 1.06525 -0.07842 0.02773
206.10000 1.03998 0.11434 0.00079
206.20000 1.10213 -0.00355 0.05040
206.30000 1.06398 -0.20399 -0.00083
206.40000 1.10025 -0.04897 0.00075
206.50000 1.02914 0.11657 -0.02072
206.60000 1.09935 0.30594 0.07461
206.70000 1.08230 0.22847 -0.00526
206.80000 1.02604 0.18193 -0.02645
206.90000 1.09087 0.16355 0.03038
207.00000 1.07220 0.13064 -0.03809
207.10000 1.09859 -0.02276 -0.01635
207.20000 1.01084 -0.05160 0.02702
207.30000 1.18139 -0.01210 0.04277
207.40000 1.02643 0.00259 -0.02748
207.50000 1.07744 0.17294 0.01345
207.60000 1.04069 0.06662 0.03024
207.70000 1.02580 -0.19012 0.01801
207.80000 1.12230 -0.18772 0.01372
207.90000 1.02833 -0.11212 -0.02769
208.00000 1.10358 -0.00341 -0.01296
208.10000 0.97615 0.06047 -0.00203
208.20000 1.13033 0.09075 0.01314
208.30000 0.99241 0.09052 0.04984
208.40000 1.08351 -0.15617 -0.00623
208.50000 1.06863 -0.16039 -0.03863
208.60000 1.04232 -0.02287 0.02929
208.70000 1.10307 -0.09449 0.05373
208.80000 1.08210 -0.07160 -0.02567
208.90000 0.99310 -0.18255 -0.08638
209.00000 1.07255 -0.00310 0.00796
209.10000 1.08604 0.06614 0.03031
209.20000 1.02153 -0.06888 0.02938
209.30000 1.13077 -0.11139 -0.05348
209.40000 1.07008 -0.15863 0.02325
209.50000 1.00162 0.16242 -0.02151
209.60000 1.06922 0.16306 -0.01753
209.70000 1.10783 0.03915 0.10001
209.80000 1.05804 0.08133 0.02509
209.90000 1.10913 0.16882 -0.06889
210.00000 1.05032 0.25302 0.04995
210.10000 1.03035 0.14947 0.05822
210.20000 1.10229 0.19228 -0.01774
210.30000 1.06628 -0.02753 -0.02141
210.40000 1.06972 -0.24137 -0.02903
210.50000 1.05535 -0.25797 0.06448
210.60000 1.08918 -0.14840 0.03725
210.70000 1.05628 0.02371 -0.03765
210.80000 1.02870 0.13191 0.07919
210.90000 1.07198 0.20081 -0.00370
211.00000 1.10113 0.05778 -0.01318
211.10000 1.00458 -0.01506 0.03727
211.20000 1.14656 0.07411 -0.03413
211.30000 1.04483 0.16717 -0.00494
211.40000 1.06471 0.07635 -0.02206
211.50000 1.06136 -0.03644 0.04248
211.60000 1.09356 0.06980 -0.00350
211.70000 1.07241 0.07147 0.03632
211.80000 1.08018 0.07166 -0.04695
211.90000 1.08816 0.10039 0.06916
212.00000 1.04556 0.23720 -0.00332
212.10000 1.08181 0.17920 -0.01555
212.20000 1.07100 0.06022 0.00237
212.30000 1.11580 0.17302 0.01429
212.40000 0.99070 0.24014 0.01742
212.50000 1.05316 0.19420 -0.04374
212.60000 1.09345 0.09225 0.00108
212.70000 1.02949 -0.11918 0.06423
212.80000 1.09929 -0.24231 -0.03694
212.90000 1.08051 -0.16635 -0.00557
213.00000 1.06514 -0.11409 0.03294
213.10000 1.12157 -0.21908 -0.02335
213.20000 0.97048 -0.35407 -0.04613
213.30000 1.12551 -0.07736 0.01705
213.40000 1.10556 0.19811 -0.00209
213.50000 1.03051 0.41332 0.03402
213.60000 1.12376 0.24497 -0.00780
213.70000 1.01199 -0.26536 0.02041
213.80000 1.05962 -0.47443 -0.04078
213.90000 1.10665 -0.28528 0.01235
214.00000 1.04555 0.17829 0.02073
214.10000 1.05863 0.32071 0.00580
214.20000 1.10807 0.07972 -0.07671
214.30000 1.05551 0.03285 0.06428
214.40000 1.05490 -0.07150 -0.01930
214.50000 1.04163 -0.09406 0.03225
214.60000 1.09076 0.06609 -0.03510
214.70000 1.04496 0.14361 -0.02608
214.80000 1.05833 0.22917 -0.01202
214.90000 1.08073 0.08822 0.02344
215.00000 1.08678 -0.04658 0.00433
215.10000 1.05420 -0.03510 -0.05394
215.20000 1.09698 -0.05049 0.09661
215.30000 1.00452 -0.04367 -0.00207
215.40000 1.08895 -0.04195 0.01465
215.50000 1.13844 -0.00497 0.00666
215.60000 1.00522 0.19373 -0.00341
215.70000 1.05337 0.13793 0.07633
215.80000 1.12984 0.05458 0.02463
215.90000 1.06354 -0.08346 -0.05715
216.00000 1.01764 -0.13866 -0.02605
216.10000 1.07768 -0.05543 0.05144
216.20000 0.99293 -0.10285 0.01453
216.30000 1.13695 -0.02005 -0.03478
216.40000 1.03865 0.15320 0.01806
216.50000 1.06372 0.15501 0.02320
216.60000 1.08270 -0.19374 -0.07525
216.70000 1.04145 -0.51179 0.01679
216.80000 1.10019 -0.37540 0.04176
216.90000 1.02823 -0.11377 0.01280
217.00000 1.02457 0.06436 0.00535
217.10000 1.08110 0.13601 -0.01367
217.20000 1.04537 -0.01718 0.03610
217.30000 1.05438 -0.29234 0.00570
217.40000 1.09352 -0.41316 -0.00624
217.50000 1.06887 -0.11213 -0.00991
217.60000 1.08099 0.08921 0.02474
217.70000 1.14080 0.12124 -0.02008
217.80000 1.06559 -0.04587 -0.00004
217.90000 1.03340 -0.05458 0.00731
218.00000 1.12213 -0.22347 -0.01126
218.10000 1.02005 -0.14834 0.02021
218.20000 1.10079 -0.02651 0.00278
218.30000 1.15671 -0.07894 0.00340
218.40000 1.03944 0.04896 0.01624
218.50000 1.11434 0.13698 -0.05712
218.60000 1.08460 0.25102 0.03618
218.70000 1.11494 0.18063 -0.01597
218.80000 1.04500 -0.12987 -0.04059
218.90000 1.07800 -0.28956 0.05928
219.00000 1.07571 -0.17643 0.02925
219.10000 1.08927 0.00021 -0.04427
219.20000 1.04536 0.08113 -0.01708
219.30000 1.07867 -0.01437 0.00782
219.40000 1.06282 -0.03014 0.07121
219.50000 1.04573 0.17288 -0.01305
219.60000 1.09691 0.22411 0.03397
219.70000 1.01085 0.16470 0.00288
219.80000 1.13514 0.18587 0.01968
219.90000 1.05548 0.03992 -0.01966
220.00000 1.08932 0.01339 0.02673
220.10000 1.11281 0.05980 -0.09843
220.20000 1.02008 0.00368 0.04199
220.30000 1.09831 0.00632 0.03622
220.40000 1.07650 -0.24949 -0.01161
220.50000 1.02395 -0.36212 0.00594
220.60000 1.10647 -0.11644 -0.00476
220.70000 1.09720 0.06801 0.01142
220.80000 1.08046 -0.05174 0.00122
220.90000 1.08108 -0.20952 -0.02870
221.00000 1.09848 -0.06216 0.06653
221.10000 1.07145 -0.00450 -0.04240
221.20000 1.04221 0.09194 0.02364
221.30000 1.03235 -0.05614 0.02190
221.40000 1.11687 -0.04241 0.01479
221.50000 1.04229 0.06751 -0.00811
221.60000 1.08424 0.15819 -0.00225
221.70000 1.04717 0.07284 0.01026
221.80000 1.06421 0.03549 -0.05644
221.90000 1.09983 0.03981 0.01633
222.00000 1.10267 0.17125 0.05229
222.10000 0.98316 0.14875 -0.02661
222.20000 1.11815 0.00458 -0.04607
222.30000 1.05958 0.00523 0.05337
222.40000 0.98048 0.05019 0.00314
222.50000 1.11070 0.07570 -0.04719
222.60000 1.04426 -0.09149 0.01953
222.70000 1.05054 -0.11159 -0.01150
222.80000 1.08423 0.00046 -0.03034
222.90000 1.07685 0.06925 -0.00028
223.00000 1.01481 -0.06638 0.07028
223.10000 1.14750 -0.14631 -0.04204
223.20000 1.06077 -0.01712 0.02539
223.30000 1.01978 0.05576 0.01062
223.40000 1.10828 0.04537 -0.00842
223.50000 1.11491 -0.12366 -0.01893
223.60000 1.01459 -0.33223 -0.00217
223.70000 1.09094 -0.41522 0.03461
223.80000 1.06175 -0.21089 0.01046
223.90000 1.09216 0.04509 0.01050
224.00000 1.05178 -0.02050 -0.02627
224.10000 1.07499 -0.05798 0.03211
224.20000 1.07881 0.00806 -0.01785
224.30000 1.00836 0.01222 0.00751
224.40000 1.07658 -0.24394 0.04113
224.50000 1.07897 -0.17738 0.04160
224.60000 1.05375 0.00292 -0.02482
224.70000 1.08721 0.07163 -0.07085
224.80000 1.07255 0.04739 0.00671
224.90000 1.09980 0.06181 0.10637
225.00000 1.05802 0.03730 -0.08909
225.10000 1.02364 0.14716 -0.02485
225.20000 1.13454 0.05874 -0.01855
225.30000 0.99707 -0.16277 -0.05249
225.40000 1.07935 -0.31858 0.00179
225.50000 1.06972 -0.20693 0.00697
225.60000 1.08395 0.04580 0.01085
225.70000 1.12301 0.22957 0.02306
225.80000 1.09495 0.20748 -0.09302
225.90000 1.08342 0.14380 -0.01845
226.00000 1.05291 0.08560 0.05958
226.10000 1.09246 0.05593 0.05063
226.20000 1.05602 -0.01608 -0.00030
226.30000 1.10253 0.08632 -0.01806
226.40000 1.02771 -0.01286 -0.03115
226.50000 1.05188 -0.14903 -0.03878
226.60000 1.09960 -0.31218 0.05510
226.70000 1.06092 -0.14320 0.02986
226.80000 1.13493 0.22103 -0.05978
226.90000 1.05943 0.13090 -0.02287
227.00000 1.07861 0.04763 0.01785
227.10000 1.07117 0.09643 0.00245
227.20000 1.07624 0.13227 0.02516
227.30000 1.06937 -0.01821 0.00637
227.40000 1.12418 -0.19785 -0.00865
227.50000 1.01043 -0.36633 0.01046
227.60000 1.16506 -0.02539 0.00905
227.70000 0.98591 0.15582 0.01279
227.80000 1.14802 0.20958 -0.03431
227.90000 1.06228 0.05126 0.00124
228.00000 1.03320 -0.02487 0.05923
228.10000 1.07977 -0.04074 -0.08221
228.20000 1.06936 0.17696 -0.02267
228.30000 1.08798 0.14817 0.02633
228.40000 1.06487 0.21193 0.02486
228.50000 1.01323 0.08258 -0.00180
228.60000 1.15214 -0.21762 -0.01184
228.70000 1.03010 -0.06747 0.01239
228.80000 1.10069 0.18943 -0.03342
228.90000 1.14118 0.09809 -0.00211
229.00000 0.98641 -0.03386 -0.00193
229.10000 1.05522 0.13918 -0.05103
229.20000 1.10162 0.20872 0.03784
229.30000 1.02971 0.28433 0.05960
229.40000 1.08270 0.14843 0.00427
229.50000 1.13932 -0.01225 0.03386
229.60000 0.99956 0.01075 -0.06035
229.70000 1.01148 -0.06917 0.01442
229.80000 1.06695 -0.16298 -0.00490
229.90000 1.08070 -0.16364 -0.03208
230.00000 1.04556 -0.12009 -0.00301
230.10000 1.07738 -0.17225 -0.00931
230.20000 0.99871 -0.26230 -0.01956
230.30000 1.14121 -0.12526 -0.05013
230.40000 1.05878 0.06929 -0.05836
230.50000 1.05487 0.12001 0.08415
230.60000 1.08585 0.15521 -0.00284
230.70000 1.01278 0.15402 -0.03398
230.80000 1.08767 -0.04012 0.01247
230.90000 1.08180 -0.20285 -0.02568
231.00000 1.05251 -0.29531 0.02610
231.10000 1.06676 -0.13947 -0.03515
231.20000 1.01939 -0.01912 -0.00442
231.30000 1.06584 -0.08218 0.04778
231.40000 1.12940 0.00644 -0.01419
231.50000 1.03550 0.02689 0.04812
231.60000 1.05420 0.07169 0.00743
231.70000 1.13602 -0.01222 -0.00794
231.80000 1.03836 -0.06315 0.01795
231.90000 1.10206 -0.04431 0.02513
232.00000 1.10580 -0.04854 0.02219
232.10000 1.13001 -0.01216 -0.04289
232.20000 1.01472 0.04303 0.03318
232.30000 1.10228 -0.05326 -0.01904
232.40000 1.02199 -0.02521 0.00152
232.50000 1.13040 0.06528 -0.03721
232.60000 1.06217 -0.01370 0.00918
232.70000 1.10141 0.00230 0.00989
232.80000 1.01630 -0.05645 0.01497
232.90000 1.10074 -0.03896 -0.03009
233.00000 1.08125 -0.05910 0.04013
233.10000 1.06060 -0.13697 0.00163
233.20000 1.11937 -0.06571 -0.02455
233.30000 1.05546 -0.02409 0.00217
233.40000 1.01946 0.09503 0.08949
233.50000 1.11261 0.08144 -0.02495
233.60000 1.04659 0.06320 -0.08723
233.70000 1.12887 0.04504 -0.01597
233.80000 1.02351 0.01717 -0.01661
233.90000 1.10340 -0.05357 -0.02288
234.00000 1.07388 0.02124 0.00336
234.10000 1.04805 0.18389 -0.03045
234.20000 1.15192 0.28460 -0.00792
234.30000 1.03758 0.08175 -0.06097
234.40000 1.04665 -0.19485 0.07864
234.50000 1.06123 -0.19758 -0.03068
234.60000 1.00780 -0.28084 -0.06978
234.70000 1.09171 -0.28754 -0.00736
234.80000 1.04933 -0.19258 0.04853
234.90000 1.15789 -0.09107 -0.07288
235.00000 0.94504 -0.16892 -0.00034
235.10000 1.14541 -0.27051 0.04235
235.20000 1.10139 -0.13443 -0.02245
235.30000 1.01958 -0.01123 0.00729
235.40000 1.06779 0.06717 -0.03397
235.50000 1.10917 -0.00447 -0.01667
235.60000 1.05689 0.02702 0.01608
235.70000 1.08675 0.06040 -0.04933
235.80000 1.00865 0.02788 0.00536
235.90000 1.11008 0.00588 0.01836
236.00000 1.10119 0.04859 -0.01736
236.10000 1.07076 0.08758 -0.02026
236.20000 0.99618 0.01815 0.01246
236.30000 1.13551 0.22987 -0.02557
236.40000 1.00150 0.20566 0.01828
236.50000 1.04359 0.10059 -0.02616
236.60000 1.07135 0.18768 -0.01282
236.70000 1.06471 -0.01699 0.02193
236.80000 1.06582 -0.03003 -0.04566
236.90000 1.05994 -0.05953 -0.00516
237.00000 1.08034 -0.08299 0.00964
237.10000 1.06759 0.09530 -0.03502
237.20000 1.00864 0.09408 -0.03554
237.30000 1.12638 0.08207 0.10437
237.40000 1.00661 0.18122 -0.03525
237.50000 1.16795 0.01146 -0.06744
237.60000 0.98834 -0.03499 0.06607
237.70000 1.13457 0.13622 0.01267
237.80000 1.00695 0.20808 -0.01985
237.90000 1.10363 0.13851 0.02720
238.00000 1.11700 0.16287 -0.02351
238.10000 1.06890 -0.12707 0.08094
238.20000 1.02820 -0.22459 0.00396
238.30000 1.07914 -0.39560 -0.05962
238.40000 1.12032 -0.22822 0.01583
238.50000 1.04155 -0.02049 0.03599
238.60000 1.10824 0.17094 -0.04291
238.70000 1.08658 0.05897 0.09551
238.80000 1.02878 0.05988 -0.03255
238.90000 1.09432 0.00967 -0.08195
239.00000 1.07153 -0.21697 0.03577
239.10000 1.03964 -0.19653 0.03947
239.20000 1.06659 0.01635 -0.01767
239.30000 1.03654 0.13847 0.03275
239.40000 1.06107 0.05096 -0.02806
239.50000 1.11841 0.05647 -0.00395
239.60000 1.03830 0.03403 0.01165
239.70000 1.06496 0.02519 0.00026
239.80000 1.05706 0.17022 0.03963
239.90000 1.08450 0.23230 0.01954
240.00000 1.07276 0.16497 -0.02019
240.10000 1.08212 -0.03301 0.04274
240.20000 1.12066 0.05086 0.01468
240.30000 1.02299 0.16219 -0.02033
240.40000 1.18484 0.04606 -0.04424
240.50000 0.94940 -0.00550 -0.02921
240.60000 1.13669 0.14567 -0.01408
240.70000 1.02143 0.15434 -0.01760
240.80000 1.11874 0.12149 0.06471
240.90000 0.97904 0.05757 -0.06200
241.00000 1.13563 -0.06399 -0.01031
241.10000 1.02303 -0.16231 -0.08308
241.20000 1.12043 0.15070 -0.01938
241.30000 0.99907 0.40003 0.09396
241.40000 1.05898 0.20627 0.04950
241.50000 1.09994 -0.15846 -0.11128
241.60000 1.03234 -0.23131 0.04803
241.70000 1.12354 0.05724 0.07297
241.80000 1.06056 0.19810 -0.02833
241.90000 1.04138 0.00220 -0.06048
242.00000 1.08060 -0.05559 0.06351
242.10000 1.10245 -0.15213 0.04199
242.20000 1.11900 -0.22673 -0.02169
242.30000 1.01854 -0.01899 0.01441
242.40000 1.09515 0.17157 -0.00071
242.50000 1.06395 0.18317 -0.02842
242.60000 1.03980 0.09780 0.00282
242.70000 1.11350 -0.02390 0.05840
242.80000 1.08552 -0.18418 0.00050
242.90000 1.02698 -0.32989 0.01701
243.00000 1.09613 -0.25818 -0.00914
243.10000 1.08956 -0.00958 0.00037
243.20000 1.06861 0.12614 -0.01814
243.30000 1.09001 0.15209 0.01616
243.40000 1.08847 -0.00856 -0.01946
243.50000 1.11722 -0.25204 -0.00034
243.60000 1.08332 -0.19029 0.00546
243.70000 1.05361 0.04208 -0.00834
243.80000 1.03805 0.03655 0.03583
243.90000 1.08542 0.11381 -0.04646
244.00000 1.05785 0.12294 -0.00611
244.10000 1.08012 -0.10060 0.01435
244.20000 1.04245 -0.29577 0.00051
244.30000 1.10253 -0.20256 0.03272
244.40000 1.06967 -0.00465 -0.05846
244.50000 1.08228 0.15866 0.03111
244.60000 1.02157 0.14367 0.06660
244.70000 1.12049 0.01849 -0.01346
244.80000 1.00263 0.11254 -0.02964
244.90000 1.07240 0.07430 0.06577
245.00000 1.09193 0.00884 -0.04744
245.10000 1.04735 -0.10330 -0.00608
245.20000 1.09817 -0.17369 0.00873
245.30000 1.10293 -0.09615 0.00313
245.40000 1.02621 0.19819 0.02105
245.50000 1.07187 0.24167 0.01812
245.60000 1.10827 0.01639 -0.00716
245.70000 1.07873 -0.23009 -0.00787
245.80000 1.07720 -0.30275 0.03881
245.90000 1.03921 -0.11078 -0.00998
246.00000 1.08092 0.11865 -0.05577
246.10000 1.09653 0.21975 -0.00150
246.20000 1.04259 0.27661 0.05210
246.30000 1.11659 0.14079 -0.04096
246.40000 1.05776 -0.10742 -0.00034
246.50000 1.02486 -0.11828 -0.04997
246.60000 1.10612 -0.01333 -0.02806
246.70000 1.08957 -0.05259 0.00087
246.80000 1.02191 -0.05821 0.01023
246.90000 1.06336 -0.20348 0.05304
247.00000 1.09186 -0.23652 0.02923
247.10000 1.03086 -0.05684 0.00546
247.20000 1.05226 0.00049 0.03365
247.30000 1.03444 -0.22442 -0.00782
247.40000 1.11382 -0.23772 -0.01324
247.50000 1.00005 -0.10894 0.02902
247.60000 1.09169 0.03787 -0.01307
247.70000 1.12053 0.04861 -0.11364
247.80000 1.03163 -0.06955 0.06472
247.90000 1.06445 0.17595 0.02519
248.00000 1.05057 0.26821 -0.03434
248.10000 1.09575 0.29418 -0.01012
248.20000 1.03138 0.00961 0.00772
248.30000 1.05241 0.02677 0.02243
248.40000 1.10261 0.10615 -0.02220
248.50000 1.12194 0.06121 0.02689
248.60000 1.01536 -0.01445 -0.00765
248.70000 1.08155 -0.09190 -0.00319
248.80000 1.05093 0.04025 -0.03880
248.90000 1.10740 0.13249 0.00614
249.00000 0.95971 -0.03482 0.08916
249.10000 1.08505 -0.01777 -0.04576
249.20000 1.10256 0.18171 -0.08056
249.30000 1.05038 0.20153 0.07377
249.40000 1.04920 -0.02620 0.01453
249.50000 1.05254 -0.03207 -0.09738
249.60000 1.10487 0.06531 0.06659
249.70000 1.06071 0.18427 0.01161
249.80000 1.01541 0.04432 -0.00731
249.90000 1.09919 0.08845 0.00392
250.00000 1.06174 -0.00945 -0.03013
250.10000 1.07174 -0.04137 -0.00234
250.20000 1.02004 0.01320 -0.00387
250.30000 1.09457 -0.06922 -0.01032
250.40000 1.01922 -0.33362 0.00644
250.50000 1.04185 -0.22283 0.00187
250.60000 1.06612 -0.02665 -0.04035
250.70000 1.09552 0.04550 0.03952
250.80000 1.04688 0.03822 -0.02381
250.90000 1.03944 -0.03011 0.03909
251.00000 1.07280 -0.02170 -0.02198
251.10000 1.00391 0.00746 -0.04661
251.20000 1.08635 -0.01659 0.02258
251.30000 1.10135 0.15801 0.03937
251.40000 1.05326 0.35320 -0.10085
251.50000 1.07000 0.28305 -0.02890
251.60000 1.01646 0.27250 0.06940
251.70000 1.07126 0.05086 0.01347
251.80000 1.07493 -0.28069 -0.07179
251.90000 1.07159 -0.17594 0.04380
252.00000 1.18347 0.15440 -0.04741
252.10000 1.02503 0.27129 -0.08017
252.20000 1.07912 0.11166 0.03778
252.30000 1.07672 -0.13706 0.05651
252.40000 1.06506 -0.07997 -0.05426
252.50000 1.04963 -0.04875 0.02325
252.60000 1.10980 0.15107 0.02472
252.70000 1.00286 0.30454 -0.01729
252.80000 1.10179 0.25816 -0.02804
252.90000 1.12544 0.03107 -0.01986
253.00000 1.03417 -0.26945 0.03771
253.10000 1.15101 -0.16645 -0.06153
253.20000 1.01542 0.00360 0.01342
253.30000 1.10644 -0.13596 0.02784
253.40000 1.08583 -0.23732 -0.01939
253.50000 1.07313 -0.24548 0.01574
253.60000 1.09917 -0.05154 0.00515
253.70000 1.06335 0.00314 0.00843
253.80000 1.04857 -0.00929 0.00781
253.90000 1.03973 -0.11961 -0.00848
254.00000 1.11674 -0.29166 0.06778
254.10000 1.08573 -0.43197 0.06366
254.20000 1.06122 -0.30447 -0.03634
254.30000 1.09243 -0.07808 0.00990
254.40000 1.03084 0.20815 0.00793
254.50000 1.10110 0.15878 0.07972
254.60000 1.03286 0.02441 -0.03698
254.70000 1.06677 -0.16446 -0.06288
254.80000 1.08645 -0.20960 0.08978
254.90000 1.01731 0.22243 -0.00404
255.00000 1.17868 0.27381 -0.04677
255.10000 1.02474 0.07606 -0.06135
255.20000 1.11530 0.03478 -0.00524
255.30000 1.06722 -0.03927 0.05013
255.40000 0.94760 0.09636 -0.02646
255.50000 1.20857 0.25243 0.06639
255.60000 1.01143 0.33924 0.03262
255.70000 1.02493 0.32449 -0.03851
255.80000 1.10554 0.18939 -0.00768
255.90000 1.04763 0.19618 0.03525
256.00000 1.07678 0.15758 -0.03395
256.10000 1.01605 0.11036 -0.02553
256.20000 1.09016 0.06213 0.01749
256.30000 1.08089 0.11087 -0.02182
256.40000 1.09261 0.07548 -0.03155
256.50000 1.09562 -0.05365 -0.02372
256.60000 1.09212 -0.17005 0.03403
256.70000 1.01002 -0.21550 0.00099
256.80000 1.05002 -0.29051 -0.05938
256.90000 1.09446 -0.36184 0.09498
257.00000 1.06052 -0.11937 -0.03186
257.10000 1.06955 -0.01891 -0.04416
257.20000 0.99605 -0.00079 -0.01244
257.30000 1.15226 0.05059 -0.01925
257.40000 1.04864 0.07006 0.01073
257.50000 1.05633 0.02284 0.00988
257.60000 1.08222 0.09262 0.01822
257.70000 1.02908 0.22071 0.00690
257.80000 1.09318 0.03519 -0.01619
257.90000 1.05228 -0.03408 0.02035
258.00000 1.00373 -0.13902 0.00155
258.10000 1.14799 0.00550 -0.01166
258.20000 0.97160 -0.01478 0.01330
258.30000 1.11277 -0.05660 -0.02104
258.40000 1.05960 -0.02731 0.02402
258.50000 1.06865 0.08694 -0.00119
258.60000 1.15017 -0.08587 -0.03570
258.70000 1.03094 -0.19336 0.04965
258.80000 1.05860 -0.09834 -0.03389
258.90000 1.08182 -0.05942 -0.00455
259.00000 1.14326 0.07976 0.01411
259.10000 1.04168 0.11291 0.02365
259.20000 1.05314 0.19810 -0.00158
259.30000 1.00924 0.30274 -0.04161
259.40000 1.01808 0.10692 0.06718
259.50000 1.09167 -0.02343 -0.00762
259.60000 1.10115 -0.26126 -0.00679
259.70000 1.06593 -0.26901 -0.03046
259.80000 1.09256 -0.26568 0.02381
259.90000 1.07532 -0.21067 -0.04997
260.00000 1.10566 -0.22684 0.02644
260.10000 1.04888 -0.06515 0.01516
260.20000 1.07116 0.01350 -0.00659
260.30000 1.10886 0.09035 -0.02390
260.40000 1.01635 0.08425 0.03020
260.50000 1.10951 -0.06547 -0.04552
260.60000 1.00884 -0.09830 0.02544
260.70000 1.10022 0.00462 -0.01081
260.80000 1.02685 -0.09171 0.00988
260.90000 1.11070 -0.28274 -0.02345
261.00000 1.05372 -0.05100 -0.01284
261.10000 1.02608 0.01982 0.02170
261.20000 1.10990 0.05654 -0.01831
261.30000 1.08713 0.10996 -0.01350
261.40000 1.06354 0.15990 0.03947
261.50000 1.06812 0.18151 0.03347
261.60000 1.11263 0.06141 -0.06217
261.70000 1.02676 -0.02689 0.06889
261.80000 1.05536 0.02028 -0.03133
261.90000 1.08822 -0.03021 -0.03048
262.00000 1.06209 -0.16134 0.06122
262.10000 1.10288 -0.21730 0.03649
262.20000 1.01658 -0.19141 -0.04267
262.30000 1.10025 -0.18312 0.01554
262.40000 1.01747 -0.04745 0.05532
262.50000 1.08109 0.08325 0.03987
262.60000 0.98969 0.02807 -0.00661
262.70000 1.09781 0.11908 -0.05114
262.80000 1.06548 -0.13698 -0.01199
262.90000 1.01202 -0.35431 0.05771
263.00000 1.13075 -0.35038 -0.01844
263.10000 0.99430 -0.12402 -0.02667
263.20000 1.05041 0.00204 -0.02007
263.30000 1.07149 0.06291 0.03194
263.40000 0.98803 0.02476 -0.04537
263.50000 1.12302 -0.08610 0.03645
263.60000 1.05063 0.14456 -0.01918
263.70000 1.07459 0.26871 -0.02876
263.80000 1.09793 0.07411 0.02301
263.90000 1.14604 0.11004 -0.06545
264.00000 1.01318 0.00210 0.03925
264.10000 1.05185 -0.03683 0.02286
264.20000 1.12751 -0.17301 0.03860
264.30000 1.03362 -0.06789 0.00590
264.40000 1.03715 0.00840 -0.00008
264.50000 1.09306 -0.01215 0.02184
264.60000 1.02112 -0.20135 -0.01837
264.70000 1.10704 -0.36128 -0.01751
264.80000 1.05635 -0.31227 -0.03359
264.90000 1.08717 -0.08063 0.08296
265.00000 1.08058 -0.08592 0.04825
265.10000 1.12453 -0.14103 -0.05217
265.20000 1.03167 0.05963 0.02916
265.30000 1.04611 0.00012 0.00247
265.40000 1.15702 -0.34007 -0.02239
265.50000 1.02820 -0.32597 -0.06913
265.60000 1.02719 -0.16416 0.04865
265.70000 1.11288 -0.03016 -0.00367
265.80000 1.09751 0.10638 -0.00221
265.90000 1.05273 0.05924 -0.01876
266.00000 1.02933 0.08470 0.04806
266.10000 1.10724 0.15959 0.02137
266.20000 1.10449 0.06668 -0.01186
266.30000 0.98762 -0.01272 0.02841
266.40000 1.15193 -0.09611 -0.00900
266.50000 0.97167 -0.05585 -0.02334
266.60000 1.08410 0.01117 -0.01407
266.70000 1.13532 0.02220 -0.01295
266.80000 0.97553 0.03936 -0.02107
266.90000 1.13862 0.08752 0.03742
267.00000 1.00627 -0.05542 0.03784
267.10000 1.07567 -0.14016 -0.03044
267.20000 1.09389 -0.08882 -0.02204
267.30000 1.10648 0.05910 -0.01467
267.40000 1.07115 0.19744 -0.01534
267.50000 1.03611 0.16577 0.07684
267.60000 1.04678 -0.02310 -0.01956
267.70000 1.05395 -0.09362 0.00126
267.80000 1.11860 0.12685 0.06196
267.90000 1.02808 0.15231 0.01348
268.00000 1.07564 0.30279 0.02771
268.10000 1.07578 0.31280 0.01311
268.20000 1.12196 0.03933 -0.00104
268.30000 1.07621 -0.03187 -0.05602
268.40000 1.05969 -0.12603 0.02336
268.50000 1.08116 -0.13973 0.02237
268.60000 1.08690 -0.14209 -0.05728
268.70000 1.05655 -0.13416 -0.01510
268.80000 1.08306 -0.07775 -0.00204
268.90000 1.00587 0.06222 -0.01743
269.00000 1.12441 0.06446 -0.03499
269.10000 1.08377 -0.04514 0.02711
269.20000 1.07342 -0.08536 -0.01127
269.30000 1.08432 0.03715 0.00952
269.40000 1.04254 0.22776 0.03633
269.50000 1.11175 0.24627 0.00795
269.60000 0.97846 0.05568 -0.00807
269.70000 1.10253 -0.12475 -0.03093
269.80000 1.09735 -0.10570 -0.01662
269.90000 1.09737 0.09065 -0.02291
270.00000 1.08374 0.14393 -0.00731
270.10000 1.04478 0.27648 -0.01713
270.20000 1.08232 0.33303 0.01587
270.30000 1.04329 0.29610 -0.01430
270.40000 1.05293 0.16833 0.01055
270.50000 1.03595 0.04614 0.01621
270.60000 1.03425 -0.02079 -0.01665
270.70000 1.06429 0.08779 -0.00755
270.80000 1.09265 0.17104 -0.01016
270.90000 1.02422 0.10693 0.01655
271.00000 1.10665 -0.00901 -0.01266
271.10000 0.99557 -0.10970 0.01156
271.20000 1.02266 -0.01633 0.05905
271.30000 1.17224 -0.06856 -0.01266
271.40000 1.00837 -0.12167 -0.00755
271.50000 1.09084 -0.18695 0.01580
271.60000 1.05474 -0.18411 -0.03309
271.70000 1.10990 0.11100 0.04705
271.80000 0.99208 0.21022 -0.04407
271.90000 1.13086 0.22019 -0.00412
272.00000 1.00424 0.05513 0.05813
272.10000 1.14364 -0.11169 -0.03003
272.20000 1.13249 -0.01052 -0.01525
272.30000 1.06719 0.04462 0.02238
272.40000 1.16237 -0.05610 -0.00384
272.50000 1.07347 -0.25990 -0.01443
272.60000 1.11026 -0.30864 0.00137
272.70000 1.04276 -0.12917 -0.02255
272.80000 1.06651 0.20129 -0.07257
272.90000 1.07317 0.32271 -0.00894
273.00000 1.05552 -0.09946 0.05374
273.10000 1.11829 -0.22331 0.00212
273.20000 1.05468 0.09514 -0.07669
273.30000 1.01053 0.21286 0.02530
273.40000 1.12331 0.39356 0.03623
273.50000 1.05438 0.27750 -0.05267
273.60000 1.09998 0.14109 0.02544
273.70000 1.04929 -0.15741 0.03160
273.80000 1.06143 -0.09253 -0.03969
273.90000 1.11328 -0.00119 0.00749
274.00000 1.05998 0.05476 0.03453
274.10000 1.03805 0.03051 0.06640
274.20000 1.13088 0.11353 -0.04117
274.30000 1.03036 0.28713 0.02059
274.40000 1.03357 0.25090 0.06078
274.50000 1.10647 0.15796 -0.01155
274.60000 1.00028 -0.07216 -0.01609
274.70000 1.05478 -0.12905 -0.04616
274.80000 1.05234 0.02104 -0.01681
274.90000 1.03818 0.11948 0.05804
275.00000 1.10402 0.13335 0.00234
275.10000 1.06671 0.25975 -0.03916
275.20000 1.05969 0.11111 0.04344
275.30000 1.05453 -0.05953 -0.01572
275.40000 1.09955 -0.13628 -0.00105
275.50000 1.01492 -0.17073 0.07571
275.60000 1.05762 -0.24090 0.04193
275.70000 1.09676 -0.21710 0.03874
275.80000 1.08266 0.01621 -0.04118
275.90000 1.01586 0.12702 -0.00377
276.00000 1.09512 -0.06178 -0.00501
276.10000 1.04403 -0.14226 0.01943
276.20000 1.09408 -0.30794 -0.03318
276.30000 1.01425 -0.03745 0.01241
276.40000 1.15092 0.06141 -0.03476
276.50000 1.01881 -0.03720 0.02714
276.60000 1.12043 -0.06540 -0.01049
276.70000 1.08213 -0.10142 -0.06762
276.80000 1.05201 -0.03300 0.03421
276.90000 1.06229 -0.02038 0.05062
277.00000 1.05250 0.08662 -0.03608
277.10000 1.08708 0.01177 -0.03273
277.20000 1.14779 -0.08537 0.02018
277.30000 1.03918 -0.01662 0.03693
277.40000 1.01568 0.06239 0.00826
277.50000 1.18934 -0.08138 0.03315
277.60000 1.00723 0.02311 -0.02612
277.70000 1.08924 -0.05366 0.04901
277.80000 1.05907 -0.01651 -0.00941
277.90000 1.01610 0.15660 -0.03771
278.00000 1.08918 0.38451 -0.01480
278.10000 1.13559 0.21938 -0.00751
278.20000 1.03928 -0.04425 0.02018
278.30000 1.11701 -0.16988 -0.01713
278.40000 0.99835 -0.07653 0.03423
278.50000 1.15218 0.16003 -0.01036
278.60000 1.07752 0.16698 -0.01081
278.70000 1.02519 -0.07823 0.01441
278.80000 1.06748 -0.24830 -0.01134
278.90000 1.02412 -0.14150 0.02650
279.00000 1.11683 0.02632 0.01529
279.10000 1.11210 0.01145 0.02101
279.20000 1.06711 -0.10367 -0.00353
279.30000 1.04055 0.05647 -0.00034
279.40000 1.05860 0.11179 0.01598
279.50000 1.08490 0.03150 0.00156
279.60000 1.01992 0.03176 -0.01906
279.70000 1.09645 -0.09890 -0.02300
279.80000 1.01673 -0.22692 -0.00811
279.90000 1.08614 -0.35672 0.01164
280.00000 1.00520 -0.29273 0.00214
280.10000 1.11718 -0.26886 0.00359
280.20000 1.10186 -0.13265 0.03784
280.30000 1.00671 -0.08578 -0.00021
280.40000 1.13690 0.10213 -0.00427
280.50000 1.03716 0.09105 0.01527
280.60000 1.09886 -0.13151 -0.00685
280.70000 1.07753 -0.07303 0.03047
280.80000 1.10179 0.17512 0.00198
280.90000 1.04067 0.03758 -0.05212
281.00000 1.10875 -0.18679 0.07218
281.10000 1.00384 -0.18499 -0.00595
281.20000 1.06607 -0.22509 0.01946
281.30000 1.10659 -0.14447 0.06450
281.40000 0.97400 -0.11372 -0.06314
281.50000 1.12965 -0.24886 -0.06779
281.60000 1.03629 -0.34173 0.02781
281.70000 1.08549 -0.09626 0.06221
281.80000 1.09013 -0.03203 -0.02225
281.90000 1.04852 -0.02416 -0.12134
282.00000 1.12170 -0.14142 0.05435
282.10000 1.04900 -0.22334 0.02622
282.20000 1.00618 0.09034 0.00045
282.30000 1.12315 0.15330 0.01357
282.40000 0.99883 -0.06303 0.01055
282.50000 1.11841 -0.15765 -0.00096
282.60000 1.08379 0.01993 0.00224
282.70000 1.01761 0.08895 -0.04938
282.80000 1.10319 -0.07553 -0.01279
282.90000 1.09248 -0.07041 0.06410
283.00000 1.07676 0.10646 -0.00841
283.10000 1.01244 -0.01284 0.00281
283.20000 1.15667 -0.19412 -0.02138
283.30000 0.99376 -0.23446 -0.03043
283.40000 1.09264 -0.16694 0.02999
283.50000 1.09875 -0.01824 0.01209
283.60000 0.99449 0.17737 -0.00856
283.70000 1.06282 0.11582 0.01679
283.80000 1.09782 -0.20053 0.03229
283.90000 1.05560 -0.42388 -0.00434
284.00000 1.10903 -0.36769 -0.03507
284.10000 1.04702 -0.11811 -0.02491
284.20000 1.07432 0.06968 0.00111
284.30000 1.18456 0.08635 0.08966
284.40000 0.98852 -0.04990 -0.00448
284.50000 1.08075 -0.19993 -0.01932
284.60000 1.10127 -0.10261 0.02869
284.70000 1.01774 0.08187 -0.02384
284.80000 1.05397 0.23832 0.02808
284.90000 1.03659 0.16406 -0.03631
285.00000 1.12951 -0.06126 -0.04837
285.10000 1.06594 -0.03144 -0.01877
285.20000 1.04430 -0.04978 0.02839
285.30000 1.14300 0.01854 -0.05402
285.40000 1.01496 0.07597 0.01141
285.50000 1.02740 0.09503 0.03473
285.60000 1.12137 0.10116 0.02517
285.70000 0.97914 0.19311 -0.04063
285.80000 1.16919 0.08262 0.03140
285.90000 1.00120 0.15570 0.00084
286.00000 1.05714 0.14336 -0.00841
286.10000 1.07677 -0.06936 0.05055
286.20000 1.03102 -0.27640 -0.02061
286.30000 1.09282 -0.25894 -0.02906
286.40000 1.09082 -0.16233 0.01129
286.50000 1.05135 -0.10222 0.04499
286.60000 1.05724 0.10662 0.01241
286.70000 1.08282 0.10427 -0.03779
286.80000 1.03531 -0.00685 -0.03557
286.90000 1.10791 0.01506 0.05639
287.00000 1.06360 -0.01002 -0.05647
287.10000 1.03492 0.03760 -0.03335
287.20000 1.09583 0.13444 -0.00079
287.30000 1.10732 -0.06570 0.01142
287.40000 1.04229 -0.28015 -0.02657
287.50000 1.05987 -0.51913 -0.00620
287.60000 1.09136 -0.32636 0.03423
287.70000 1.10929 -0.02833 0.00563
287.80000 1.04351 0.09085 -0.00003
287.90000 1.12560 -0.00078 -0.03595
288.00000 1.05869 0.08574 0.03810
288.10000 1.05885 0.17510 -0.07533
288.20000 1.07662 0.19816 0.03544
288.30000 1.07498 0.14896 -0.00399
288.40000 1.08963 0.12271 0.01854
288.50000 1.03661 0.23727 -0.03321
288.60000 1.04416 0.19062 0.07983
288.70000 1.05197 -0.06754 0.04731
288.80000 1.10251 -0.17057 -0.06131
288.90000 1.04569 -0.01094 -0.00863
289.00000 1.07683 -0.09988 0.08872
289.10000 1.08950 -0.18511 -0.01240
289.20000 1.03582 -0.16555 -0.04911
289.30000 1.09399 0.05009 -0.01124
289.40000 1.10635 0.12751 0.01817
289.50000 0.97233 0.00921 0.02335
289.60000 1.08588 0.10210 0.03260
289.70000 1.11556 0.18191 -0.04455
289.80000 1.07518 -0.11066 -0.01120
289.90000 1.09954 -0.31640 0.06097
290.00000 1.03697 -0.10758 0.00121
290.10000 1.06414 -0.02960 -0.03926
290.20000 1.04241 -0.10975 0.00372
290.30000 1.10847 -0.14556 0.07391
290.40000 1.04031 -0.05580 -0.04192
290.50000 1.07828 0.18819 -0.01053
290.60000 1.11603 0.28041 -0.03922
290.70000 1.00516 0.15291 0.02374
290.80000 1.08615 0.03746 0.00133
290.90000 1.06363 -0.06363 -0.03315
291.00000 1.02711 0.08317 0.06705
291.10000 1.12042 0.13940 -0.00895
291.20000 0.98593 0.05585 0.00255
291.30000 1.10712 -0.18766 -0.00338
291.40000 1.00905 -0.05457 -0.04327
291.50000 1.07263 -0.03867 -0.03418
291.60000 1.15527 -0.23851 0.05103
291.70000 1.01810 -0.31492 0.00907
291.80000 1.03010 -0.04711 0.00820
291.90000 1.11978 0.06933 0.05325
292.00000 1.10493 -0.10209 0.01395
292.10000 1.08651 -0.16323 -0.07925
292.20000 1.07787 -0.19744 0.00403
292.30000 1.08461 -0.14712 0.04225
292.40000 0.99479 -0.01473 0.03403
292.50000 1.08862 0.01522 -0.01175
292.60000 1.09450 -0.01338 0.02221
292.70000 1.07244 -0.19399 -0.03390
292.80000 1.09739 -0.34629 -0.01564
292.90000 1.04487 -0.24533 -0.00036
293.00000 1.14252 -0.07354 0.01639
293.10000 1.09279 -0.06522 -0.04200
293.20000 1.04058 -0.07145 0.04799
293.30000 1.09935 0.03008 -0.05810
293.40000 1.02178 0.00748 -0.04112
293.50000 1.08170 -0.11688 0.08252
293.60000 1.08351 -0.10870 0.02401
293.70000 1.06383 -0.22854 -0.02677
293.80000 1.11001 -0.22169 -0.01141
293.90000 1.11354 -0.18964 0.01282
294.00000 1.05911 -0.26126 -0.01900
294.10000 0.94535 -0.15942 0.03388
294.20000 1.18986 -0.15254 -0.02128
294.30000 1.04063 -0.09883 -0.02140
294.40000 1.08121 -0.12448 -0.00596
294.50000 1.10310 -0.12158 0.07940
294.60000 1.04780 0.00668 -0.02381
294.70000 1.04497 0.07460 0.00592
294.80000 1.11556 -0.05095 0.04296
294.90000 1.04612 0.09687 0.03203
295.00000 1.09227 0.02855 0.02415
295.10000 1.10503 -0.07590 0.00310
295.20000 1.07749 -0.00993 0.01483
295.30000 1.10500 0.04351 -0.02042
295.40000 1.06377 0.05293 -0.03624
295.50000 1.06676 0.31197 -0.00044
295.60000 1.03513 0.26950 -0.02228
295.70000 1.09430 0.17321 -0.03643
295.80000 1.00836 0.19418 0.00521
295.90000 1.07087 0.05955 0.01369
296.00000 1.11389 -0.13932 0.03901
296.10000 1.08209 -0.25157 0.00551
296.20000 1.02915 -0.09358 -0.06247
296.30000 1.06207 0.17684 0.00107
296.40000 1.10746 -0.01318 -0.00163
296.50000 1.03846 -0.14352 0.02792
296.60000 1.06779 0.06287 -0.02290
296.70000 1.09721 0.16390 0.00463
296.80000 1.04842 0.16799 -0.01891
296.90000 1.07622 0.12266 -0.04921
297.00000 1.07323 0.05892 0.01756
297.10000 1.05167 -0.02399 0.06167
297.20000 1.08124 -0.16507 0.02007
297.30000 1.02518 -0.31047 -0.00650
297.40000 1.09633 -0.12394 0.06254
297.50000 1.10563 0.03158 -0.04280
297.60000 1.07703 0.01716 0.03147
297.70000 1.07625 -0.11599 0.05901
297.80000 1.04246 -0.21574 0.01771
297.90000 1.07500 -0.23313 -0.00811
298.00000 1.11642 -0.16617 0.06160
298.10000 1.05782 0.07749 -0.01577
298.20000 1.02973 0.17674 -0.01272
298.30000 1.18176 0.00139 -0.01079
298.40000 1.05783 -0.09391 0.04097
298.50000 1.07768 -0.05781 -0.02410
298.60000 1.06927 -0.06235 0.04349
298.70000 1.05193 -0.03073 -0.02242
298.80000 1.04798 0.07584 -0.03017
298.90000 1.07404 0.06670 0.04207
299.00000 1.05616 0.06433 0.04156
299.10000 1.14151 0.08986 -0.02784
299.20000 0.98310 0.09707 -0.01931
299.30000 0.97070 0.14852 0.03098
299.40000 1.16899 0.04819 -0.00238
299.50000 1.01464 -0.03157 0.02437
299.60000 1.13876 -0.16461 0.02210
299.70000 1.01786 -0.23127 -0.04651
299.80000 1.04366 -0.07870 -0.00536
299.90000 1.15802 0.10427 0.04132
300.00000 1.06790 0.08488 0.01862
300.10000 1.04119 -0.08305 -0.02992
300.20000 1.12604 -0.18728 -0.01942
300.30000 0.96896 -0.24516 0.08141
300.40000 1.13243 -0.09001 -0.04084
300.50000 1.06614 -0.04961 0.01454
300.60000 1.07610 0.10627 0.05471
300.70000 1.03120 0.14718 -0.00316
300.80000 1.11146 0.07157 -0.04024
300.90000 1.07480 0.09321 0.00322
301.00000 1.03222 -0.06921 0.04076
301.10000 1.05269 -0.27873 -0.04867
301.20000 1.10563 -0.23029 -0.01115
301.30000 1.05187 0.06354 0.03726
301.40000 1.05889 0.09136 0.05947
301.50000 1.03417 0.09314 -0.06497
301.60000 1.09156 0.10605 -0.04204
301.70000 1.04394 -0.09655 0.01736
301.80000 1.11084 -0.19860 -0.00051
301.90000 1.04977 -0.21617 -0.00866
302.00000 1.08760 -0.08449 -0.01371
302.10000 1.01893 0.02997 -0.05969
302.20000 1.09416 0.14833 -0.03203
302.30000 1.03768 0.05246 0.02840
302.40000 1.12082 -0.07343 0.02936
302.50000 1.04971 -0.06968 0.05401
302.60000 1.01045 -0.06656 -0.00855
302.70000 1.12502 -0.03550 -0.00146
302.80000 1.01236 0.05106 -0.04441
302.90000 1.05307 0.09159 0.03419
303.00000 1.13977 0.10419 -0.03052
303.10000 1.08110 -0.07430 -0.05027
303.20000 1.06793 -0.08634 0.01525
303.30000 1.00098 0.02425 -0.01826
303.40000 1.10150 -0.31634 -0.01454
303.50000 1.05951 -0.31663 0.04631
303.60000 1.03040 -0.16602 -0.03285
303.70000 1.14630 0.07260 0.03235
303.80000 1.02243 0.15886 0.00168
303.90000 1.10219 0.06210 -0.00721
304.00000 1.03260 0.05331 -0.04541
304.10000 1.08727 -0.16119 0.08726
304.20000 1.08638 -0.17588 -0.00414
304.30000 1.02988 -0.22162 -0.02128
304.40000 1.08863 0.01303 -0.02938
304.50000 1.08553 0.21110 0.06758
304.60000 1.01899 0.10410 -0.05651
304.70000 1.15246 -0.04298 0.03122
304.80000 1.04467 -0.13901 -0.01241
304.90000 1.08210 -0.20257 0.01682
305.00000 1.07750 -0.18819 0.01224
305.10000 1.02559 -0.12816 0.04208
305.20000 1.11317 0.00801 0.03839
305.30000 1.01661 -0.09038 -0.04789
305.40000 1.09883 -0.05047 -0.03130
305.50000 1.03160 -0.05199 0.02901
305.60000 1.03521 -0.08698 0.05056
305.70000 1.15968 0.02026 -0.03022
305.80000 1.04780 -0.15037 0.04164
305.90000 1.02526 -0.13711 -0.03044
306.00000 1.00747 0.06281 -0.02397
306.10000 1.13491 0.03983 -0.01832
306.20000 1.03020 0.19820 -0.02876
306.30000 1.05050 0.23139 -0.03969
306.40000 1.11797 0.23030 0.04524
306.50000 1.05018 -0.01015 0.03848
306.60000 1.04252 -0.22287 -0.05072
306.70000 1.11129 -0.06369 0.02026
306.80000 0.98097 -0.04261 -0.02257
306.90000 1.09342 0.03421 -0.00670
307.00000 1.02385 0.08122 0.02401
307.10000 1.10018 0.08978 0.06882
307.20000 1.06662 -0.06287 -0.05547
307.30000 1.11352 0.08768 -0.03477
307.40000 1.06153 0.05244 -0.01342
307.50000 1.07559 -0.00131 0.00423
307.60000 1.05970 -0.13605 -0.07096
307.70000 1.10229 -0.12719 0.00341
307.80000 1.05853 0.01907 -0.04652
307.90000 1.10003 0.16974 -0.01091
308.00000 1.08289 0.25598 0.02378
308.10000 1.02814 0.21202 0.01209
308.20000 1.19365 0.05594 0.02547
308.30000 0.97628 -0.08357 -0.01129
308.40000 1.07737 0.00899 -0.01905
308.50000 1.03119 -0.00631 0.02816
308.60000 1.07908 0.01594 0.05968
308.70000 1.05610 0.04628 -0.00530
308.80000 1.07647 0.04182 -0.01617
308.90000 1.09360 -0.08649 0.00919
309.00000 1.06113 -0.15919 0.00711
309.10000 1.11828 -0.16431 0.00400
309.20000 1.03679 -0.14178 0.01308
309.30000 1.07379 -0.13136 -0.02364
309.40000 1.02212 -0.07495 -0.05202
309.50000 1.12664 0.01940 0.07730
309.60000 1.04609 0.01415 -0.06593
309.70000 1.10111 -0.02906 -0.02696
309.80000 1.06347 -0.13988 0.02268
309.90000 1.09596 -0.03510 0.04163
310.00000 1.03300 0.09447 -0.02859
310.10000 1.09164 0.20844 0.07619
310.20000 1.05983 0.22686 -0.04776
310.30000 1.03799 -0.10011 -0.09180
310.40000 1.11516 -0.17414 0.05560
310.50000 0.99326 -0.09683 0.04521
310.60000 1.07960 -0.15215 -0.06837
310.70000 1.12469 -0.26849 0.00456
310.80000 1.00566 -0.38082 -0.00542
310.90000 1.06786 -0.20605 -0.01027
311.00000 1.13122 0.02988 0.02302
311.10000 0.97032 0.12891 -0.04289
311.20000 1.14252 0.19255 0.02331
311.30000 1.09757 0.29504 0.02193
311.40000 1.00908 0.16881 -0.06263
311.50000 1.14639 0.13976 -0.00412
311.60000 0.99186 0.02808 0.05323
311.70000 1.13907 0.02609 0.01050
311.80000 1.08236 0.02091 -0.03284
311.90000 1.01973 -0.03708 0.01081
312.00000 1.14259 -0.03902 0.06185
312.10000 1.04015 0.07638 -0.11295
312.20000 1.08207 0.11250 0.00489
312.30000 0.97268 0.00237 0.05689
312.40000 1.05654 -0.06466 -0.05331
312.50000 1.12394 -0.03173 -0.00649
312.60000 0.99864 -0.02307 0.04425
312.70000 1.07474 -0.06163 -0.03935
312.80000 1.06614 0.02342 0.00845
312.90000 1.04296 0.17241 0.01405
313.00000 1.08596 0.06587 -0.04832
313.10000 1.12511 -0.00099 0.01413
313.20000 1.07674 -0.15284 -0.00378
313.30000 1.09028 -0.09776 -0.00231
313.40000 1.06050 0.06426 -0.03309
313.50000 1.04826 0.10861 -0.01070
313.60000 1.08871 0.16747 0.03160
313.70000 1.09601 0.06934 0.04579
313.80000 0.99596 -0.00604 0.00258
313.90000 1.12010 0.02358 -0.07344
314.00000 1.01370 -0.00832 -0.01125
314.10000 1.09382 -0.14796 0.03253
314.20000 1.06620 -0.34983 0.01917
314.30000 1.08188 -0.29800 -0.04630
314.40000 1.11943 0.03936 0.00754
314.50000 0.99916 0.29298 -0.04098
314.60000 1.04301 0.40032 0.00954
314.70000 1.10610 0.16928 0.01356
314.80000 1.02758 -0.08524 -0.04689
314.90000 1.07832 -0.10427 0.04486
315.00000 1.03198 -0.06748 0.03077
315.10000 1.03661 -0.03991 0.04777
315.20000 1.08275 -0.16366 -0.02858
315.30000 1.09618 -0.00957 0.00250
315.40000 1.08019 0.07755 0.04619
315.50000 1.08777 0.11862 -0.01250
315.60000 1.04595 0.03330 -0.06538
315.70000 1.05744 -0.12748 0.00508
315.80000 1.10335 -0.14025 -0.00179
315.90000 1.08201 -0.06022 0.00845
316.00000 1.04536 -0.08554 -0.02460
316.10000 1.05099 0.00669 -0.02299
316.20000 1.06784 0.08393 -0.04147
316.30000 1.08564 0.01319 0.02487
316.40000 1.10154 0.08324 0.02799
316.50000 1.08031 -0.08369 -0.04773
316.60000 1.00382 -0.25065 -0.03432
316.70000 1.09416 -0.15493 0.10683
316.80000 1.06176 0.03914 -0.05228
316.90000 1.01706 0.01328 0.01532
317.00000 1.09548 -0.05709 -0.02946
317.10000 1.07065 0.04879 -0.08663
317.20000 1.08713 0.06629 0.02856
317.30000 1.08888 -0.12144 -0.02949
317.40000 1.04557 -0.26596 -0.00857
317.50000 1.06536 -0.33570 0.00810
317.60000 1.02779 -0.06408 -0.03263
317.70000 1.12320 0.15350 0.01101
317.80000 1.08495 0.11293 -0.00162
317.90000 1.07113 -0.07896 -0.04467
318.00000 1.08995 0.07033 0.04783
318.10000 1.06438 0.18667 0.01212
318.20000 1.10089 0.09307 -0.04084
318.30000 1.11734 0.01054 0.00155
318.40000 1.07022 -0.12734 -0.01642
318.50000 1.09347 -0.22448 -0.00524
318.60000 1.04612 -0.31566 0.01543
318.70000 1.06935 -0.36861 0.01576
318.80000 1.09293 -0.23506 -0.00571
318.90000 1.03971 -0.17783 -0.01803
319.00000 1.04002 0.00307 0.01002
319.10000 1.10955 0.23793 -0.00769
319.20000 1.03663 0.25877 -0.02031
319.30000 1.04137 0.01816 0.01776
319.40000 1.14182 -0.13611 0.01071
319.50000 1.00207 -0.21438 -0.03674
319.60000 1.06964 -0.05411 -0.03187
319.70000 1.12394 -0.04261 0.06299
319.80000 1.05768 -0.07752 0.03967
319.90000 1.08299 0.16039 -0.01085
320.00000 1.06892 0.28578 -0.04394
320.10000 0.97757 0.26623 0.05410
320.20000 1.15604 0.17636 0.02892
320.30000 1.04252 -0.14714 -0.06593
320.40000 1.08134 -0.15097 -0.02469
320.50000 1.04352 0.00087 0.09239
320.60000 1.06979 0.22092 -0.03149
320.70000 1.05899 0.16413 -0.01716
320.80000 1.08074 0.05040 0.02422
320.90000 1.11925 -0.00162 -0.04168
321.00000 1.12077 -0.01301 -0.01857
321.10000 1.02123 -0.08761 0.01806
321.20000 1.07460 -0.26502 -0.01538
321.30000 1.11308 -0.26583 0.07271
321.40000 1.02557 -0.02283 -0.01864
321.50000 1.12213 0.09265 0.03404
321.60000 1.04979 0.30471 -0.00292
321.70000 1.04484 0.22396 0.02264
321.80000 1.11409 0.07837 -0.10193
321.90000 1.01507 0.04014 0.04850
322.00000 1.10169 0.26150 0.00640
322.10000 1.07904 0.33594 -0.04555
322.20000 1.02152 0.19630 0.06616
322.30000 1.03240 0.08023 0.00776
322.40000 1.13178 0.07135 -0.00733
322.50000 1.01629 -0.08413 0.02686
322.60000 1.10830 0.01894 0.01569
322.70000 1.07389 0.10052 -0.01826
322.80000 1.04845 -0.06079 -0.01830
322.90000 1.02006 -0.25491 0.04465
323.00000 1.11546 -0.21776 0.00971
323.10000 0.99555 0.17952 -0.02294
323.20000 1.08859 0.28539 -0.06938
323.30000 1.09742 0.02991 -0.00381
323.40000 1.04495 -0.18411 0.05697
323.50000 1.10541 -0.11886 -0.05697
323.60000 1.10120 -0.05189 0.00202
323.70000 1.06370 -0.05291 -0.01738
323.80000 1.08792 -0.30282 0.00724
323.90000 1.06022 -0.12277 -0.01626
324.00000 1.06414 -0.00895 -0.01334
324.10000 1.05516 0.21948 -0.00550
324.20000 1.12733 0.13030 -0.02292
324.30000 0.98717 -0.14330 -0.01924
324.40000 1.13978 -0.15301 -0.02342
324.50000 1.05908 -0.02182 0.01830
324.60000 1.08137 0.18126 -0.02184
324.70000 1.10871 0.18279 -0.04433
324.80000 1.01937 0.03937 0.02809
324.90000 1.06143 -0.02334 -0.01675
325.00000 1.12429 -0.02246 -0.00635
325.10000 0.98411 -0.01453 0.00811
325.20000 1.06553 0.09444 -0.00139
325.30000 1.09129 0.08894 -0.05092
325.40000 1.08018 0.14005 0.00061
325.50000 1.05279 0.06358 -0.01128
325.60000 1.04144 0.04456 0.03554
325.70000 1.04295 -0.00727 -0.07220
325.80000 1.06889 0.17505 0.04201
325.90000 1.10709 0.20073 0.00605
326.00000 1.06347 -0.03991 -0.04494
326.10000 1.10944 -0.22367 0.05871
326.20000 1.06961 -0.32567 0.02091
326.30000 1.10707 -0.22225 -0.01395
326.40000 1.08237 -0.08334 0.03194
326.50000 1.11476 0.10534 -0.00619
326.60000 1.06119 0.10389 0.02983
326.70000 1.01267 -0.14714 -0.01917
326.80000 1.12550 -0.17776 -0.01439
326.90000 0.99307 -0.12923 -0.03893
327.00000 1.13377 -0.02656 -0.00836
327.10000 1.04348 -0.12537 0.01356
327.20000 1.10061 -0.15849 -0.06237
327.30000 1.10787 -0.02491 -0.00995
327.40000 1.00017 0.12350 0.01788
327.50000 1.09973 0.12388 -0.03035
327.60000 1.11865 -0.01057 -0.00570
327.70000 0.98611 -0.12037 0.02318
327.80000 1.03205 -0.18097 -0.00159
327.90000 1.08455 -0.15825 -0.01023
328.00000 1.06984 -0.02193 -0.02999
328.10000 1.03480 -0.01071 0.04699
328.20000 1.08790 0.02130 0.04846
328.30000 1.07360 0.01780 -0.01631
328.40000 1.04985 0.06156 0.03529
328.50000 1.08309 0.07044 0.01257
328.60000 1.08297 0.02286 -0.05770
328.70000 1.08554 -0.01571 0.06628
328.80000 1.05107 -0.03366 -0.01615
328.90000 1.08146 -0.25872 -0.01544
329.00000 0.99255 -0.26063 -0.00411
329.10000 1.11953 -0.08252 -0.02633
329.20000 1.02659 0.00955 0.00399
329.30000 1.10093 0.04098 0.07521
329.40000 1.04551 0.11354 -0.06720
329.50000 1.06142 0.03277 0.05066
329.60000 1.04137 -0.10703 0.01909
329.70000 1.08456 0.02008 -0.02257
329.80000 1.06486 0.05984 -0.01283
329.90000 1.12071 -0.07238 0.02834
330.00000 1.02983 -0.10983 0.02261
330.10000 1.09911 -0.29429 0.03863
330.20000 1.01951 -0.12541 0.00618
330.30000 1.08958 -0.01467 -0.02753
330.40000 1.07449 -0.15916 0.04795
330.50000 1.02046 -0.20866 0.03059
330.60000 1.11009 -0.11187 -0.04842
330.70000 1.05736 0.03853 0.04855
330.80000 1.05612 0.07697 0.02704
330.90000 1.05857 0.25628 -0.03998
331.00000 1.07370 0.23777 0.03776
331.10000 1.06669 0.12673 -0.04042
331.20000 1.07460 0.07911 -0.01056
331.30000 1.07370 0.07181 0.01882
331.40000 1.08914 0.05610 0.00245
331.50000 1.08902 0.07587 -0.01138
331.60000 1.11503 0.13583 0.01604
331.70000 1.06165 0.14915 0.00835
331.80000 1.04597 0.12047 -0.00204
331.90000 1.06815 0.23147 -0.03206
332.00000 1.08707 0.11082 0.05021
332.10000 1.01024 -0.03805 0.01448
332.20000 1.09474 -0.10274 -0.03454
332.30000 1.04423 -0.20554 0.02646
332.40000 1.05982 -0.05165 -0.03638
332.50000 1.10550 0.15019 -0.01694
332.60000 1.02831 0.11926 -0.02684
332.70000 1.04736 0.01065 0.00610
332.80000 1.07415 -0.05766 0.04359
332.90000 1.06624 -0.12062 -0.01983
333.00000 1.08333 -0.16999 -0.03745
333.10000 1.10108 0.07004 0.01657
333.20000 1.00303 -0.07656 0.01709
333.30000 1.15364 -0.08577 0.03293
333.40000 1.03614 0.09883 -0.03867
333.50000 1.02904 0.14507 0.02900
333.60000 1.11763 -0.04601 0.00365
333.70000 1.06812 -0.22580 0.01792
333.80000 1.00704 -0.30152 -0.02257
333.90000 1.09028 -0.04475 0.01435
334.00000 1.04796 0.11397 -0.04560
334.10000 1.06339 0.03098 0.00834
334.20000 1.12876 -0.01689 0.01149
334.30000 1.05528 -0.05383 0.00043
334.40000 1.08687 0.01972 0.00517
334.50000 1.09289 0.03363 0.02426
334.60000 1.03812 0.05152 -0.01025
334.70000 1.10337 0.01358 -0.03613
334.80000 1.05909 -0.14675 -0.03243
334.90000 1.05078 -0.17970 -0.00929
335.00000 1.08217 -0.09688 0.00208
335.10000 1.07051 -0.03481 -0.03393
335.20000 1.03735 0.16232 0.04575
335.30000 1.11412 0.25623 -0.04513
335.40000 1.01062 0.15662 0.04263
335.50000 1.04326 -0.02206 -0.02145
335.60000 1.08734 -0.08951 -0.00914
335.70000 1.05462 -0.04861 0.02830
335.80000 1.04337 0.15237 0.03789
335.90000 1.06425 0.18480 -0.02463
336.00000 1.12104 0.05880 0.00268
336.10000 1.01350 -0.17736 0.05330
336.20000 1.10733 -0.25100 -0.07264
336.30000 1.05972 -0.30194 0.02231
336.40000 0.98855 -0.10829 0.02399
336.50000 1.15372 -0.02944 -0.06427
336.60000 1.06932 -0.16701 -0.02161
336.70000 1.03495 -0.19170 0.10441
336.80000 1.10018 -0.06046 0.00634
336.90000 1.10527 0.19963 -0.04236
337.00000 1.05742 0.15095 0.02689
337.10000 1.07253 -0.11284 0.00546
337.20000 1.09429 -0.25807 -0.00692
337.30000 1.02271 -0.18675 -0.04447
337.40000 1.12901 -0.11531 -0.00289
337.50000 0.99951 -0.06134 0.06437
337.60000 1.06853 0.03006 0.00178
337.70000 1.05969 0.08546 -0.07733
337.80000 1.06182 0.04054 0.01886
337.90000 1.14011 0.04716 0.03139
338.00000 0.97037 -0.04625 -0.01438
338.10000 1.17939 -0.10209 0.01013
338.20000 1.06516 0.04253 0.02444
338.30000 1.05352 0.05532 0.01477
338.40000 1.03272 0.24015 -0.01647
338.50000 1.08007 0.22166 0.03571
338.60000 1.07505 0.46609 -0.03208
338.70000 1.04820 0.39443 -0.02645
338.80000 1.07100 0.05352 0.01962
338.90000 1.09375 -0.20956 0.01371
339.00000 1.00977 -0.09750 0.00127
339.10000 1.16294 0.12093 0.02735
339.20000 1.00493 0.34740 0.00742
339.30000 1.07884 0.37757 0.01926
339.40000 1.12098 0.13903 0.02613
339.50000 1.07553 -0.02737 -0.02950
339.60000 1.02922 0.02069 -0.03108
339.70000 1.07020 -0.06030 -0.00236
339.80000 1.03647 0.01535 0.03221
339.90000 1.07438 0.11185 0.02068
340.00000 1.08204 0.10334 -0.01104
340.10000 1.09698 0.02930 -0.02275
340.20000 1.12738 0.09340 -0.02568
340.30000 0.96956 0.15435 -0.00228
340.40000 1.14766 -0.05273 -0.03106
340.50000 1.14644 -0.36811 0.00722
340.60000 0.96941 -0.27630 0.04572
340.70000 1.11576 -0.07804 -0.02100
340.80000 1.05094 0.15810 0.01575
340.90000 1.03635 0.08749 0.01894
341.00000 1.09915 0.03248 0.03898
341.10000 1.06234 -0.06880 0.05918
341.20000 1.13294 -0.29975 -0.01453
341.30000 1.06235 -0.13818 -0.09502
341.40000 1.01616 0.29724 0.03909
341.50000 1.15202 0.48176 0.06311
341.60000 1.02260 0.22149 -0.00783
341.70000 1.10931 0.13615 -0.03129
341.80000 1.09755 0.01207 0.03198
341.90000 0.99988 0.08959 -0.02155
342.00000 1.05785 0.22385 -0.04915
342.10000 1.09535 0.19410 -0.03279
342.20000 1.00802 0.05080 0.04328
342.30000 1.09975 -0.04868 -0.03589
342.40000 1.05093 0.03037 0.01442
342.50000 1.02965 -0.03412 0.03424
342.60000 1.09402 0.04068 0.00410
342.70000 1.04582 0.07025 -0.03428
342.80000 1.07644 -0.03186 -0.03546
342.90000 1.07504 -0.06409 0.05523
343.00000 1.00113 0.21811 -0.03215
343.10000 1.11094 0.31623 -0.01292
343.20000 1.07281 0.31470 0.05525
343.30000 1.01787 0.18977 -0.01646
343.40000 1.13259 -0.00168 -0.00597
343.50000 1.04902 0.06016 0.06313
343.60000 1.05346 -0.01218 -0.01030
343.70000 1.08909 -0.01407 0.00573
343.80000 1.04432 0.02428 -0.02821
343.90000 1.11444 0.13418 -0.01326
344.00000 1.05233 0.17256 -0.00009
344.10000 1.05796 0.06601 -0.00843
344.20000 1.01812 0.03473 -0.00091
344.30000 1.07660 0.10135 0.00403
344.40000 1.08943 0.07558 -0.01840
344.50000 1.01292 -0.11319 0.03250
344.60000 1.10053 -0.28391 -0.02666
344.70000 1.03960 -0.21551 -0.01164
344.80000 1.01325 -0.03716 -0.02110
344.90000 1.10893 -0.02606 0.02566
345.00000 1.11298 0.09159 0.04435
345.10000 1.09993 0.10133 -0.09590
345.20000 1.08027 0.13005 0.01243
345.30000 1.01443 0.20776 0.04626
345.40000 1.11152 0.23263 0.00864
345.50000 0.98954 0.08157 -0.05861
345.60000 1.05228 -0.12362 0.03362
345.70000 1.12858 -0.15317 -0.00844
345.80000 1.07711 -0.00517 0.00882
345.90000 1.09002 0.13047 -0.00461
346.00000 1.07412 -0.05632 0.02154
346.10000 1.05834 -0.20273 0.00329
346.20000 1.04910 -0.16055 0.00319
346.30000 1.01210 -0.04020 -0.02122
346.40000 1.14895 0.10457 -0.04327
346.50000 0.99328 0.29145 0.02041
346.60000 1.13761 0.21440 0.04784
346.70000 1.05009 -0.00818 -0.00054
346.80000 1.06334 -0.22110 0.00613
346.90000 1.09130 -0.12264 -0.02245
347.00000 1.10890 0.15414 -0.03459
347.10000 1.06147 0.18314 0.03941
347.20000 1.10327 0.11589 -0.06687
347.30000 1.02560 0.07644 -0.03220
347.40000 1.07748 0.15286 0.04753
347.50000 1.15206 0.23821 -0.00916
347.60000 1.08859 0.08024 0.00188
347.70000 1.05580 -0.03915 0.03501
347.80000 1.11164 -0.02412 -0.02098
347.90000 1.06015 -0.04463 0.03357
348.00000 1.09726 -0.18036 0.01009
348.10000 1.05715 -0.12757 0.00453
348.20000 1.03778 -0.08788 -0.05772
348.30000 1.11317 -0.00997 -0.07057
348.40000 1.00727 0.10966 0.02496
348.50000 1.07523 0.09506 0.01197
348.60000 1.07581 0.02965 -0.00487
348.70000 1.08249 0.02095 -0.08074
348.80000 1.04925 -0.12697 -0.05374
348.90000 1.03876 -0.12404 0.04238
349.00000 1.09050 -0.03071 0.01177
349.10000 1.10443 -0.04102 -0.02456
349.20000 1.09876 -0.05743 0.00111
349.30000 1.05593 -0.06210 0.04819
349.40000 1.08430 -0.01592 -0.04730
349.50000 1.08506 0.06694 -0.05108
349.60000 1.09761 0.10860 0.03415
349.70000 1.07526 0.14778 0.05644
349.80000 1.02661 0.01149 -0.05164
349.90000 1.02635 -0.01535 -0.02201
350.00000 1.12344 0.09889 0.09183
350.10000 1.06240 0.28559 -0.07325
350.20000 1.08102 0.10553 -0.00873
350.30000 1.00422 0.12616 0.06407
350.40000 1.03991 0.35550 0.00698
350.50000 1.12958 0.54807 0.03785
350.60000 1.00932 0.42819 0.01827
350.70000 1.12508 -0.06458 0.00887
350.80000 1.04359 -0.17715 0.01729
350.90000 1.10052 0.06761 -0.03707
351.00000 1.08041 0.16889 -0.08218
351.10000 1.05693 0.17747 0.04144
351.20000 1.10565 0.01642 0.01385
351.30000 1.11016 -0.07858 0.00494
351.40000 1.01158 0.02265 -0.02123
351.50000 1.12750 -0.06595 -0.00863
351.60000 1.04351 -0.14492 0.02630
351.70000 1.06825 -0.18589 -0.00326
351.80000 1.07492 -0.21105 -0.00564
351.90000 1.07068 0.09202 -0.01083
352.00000 1.07708 0.13937 0.04056
352.10000 1.03492 0.05247 -0.01235
352.20000 1.13230 -0.07423 0.01286
352.30000 1.03469 -0.38151 0.05046
352.40000 1.00043 -0.20048 -0.01423
352.50000 1.10565 -0.04234 -0.06149
352.60000 1.07064 0.14692 0.01491
352.70000 1.03737 0.10101 0.00035
352.80000 1.11899 0.09292 -0.02418
352.90000 1.05690 0.09763 0.01352
353.00000 1.04638 0.17944 0.01872
353.10000 1.05574 0.12827 -0.01430
353.20000 1.12930 -0.01084 -0.04045
353.30000 1.05505 -0.01815 -0.02333
353.40000 1.08427 0.09900 0.01974
353.50000 1.08206 -0.04302 -0.02167
353.60000 1.07192 0.14582 -0.06430
353.70000 1.07245 0.26507 0.07591
353.80000 1.05288 0.09090 -0.00328
353.90000 1.11348 0.05098 -0.02648
354.00000 1.08753 0.13738 0.01588
354.10000 1.09445 -0.04953 -0.02692
354.20000 1.05865 -0.04901 -0.04589
354.30000 1.05367 0.12490 0.01089
354.40000 1.03604 0.05960 0.07034
354.50000 1.07671 0.03837 -0.02600
354.60000 1.08996 -0.10597 -0.03262
354.70000 0.99826 -0.15674 -0.03901
354.80000 1.14302 -0.07135 0.04953
354.90000 1.07473 0.12464 -0.06339
355.00000 1.07082 0.12641 -0.04311
355.10000 1.06044 -0.09901 0.01672
355.20000 1.06127 -0.12305 -0.00349
355.30000 1.04905 -0.13899 0.01327
355.40000 1.16040 -0.16926 0.01348
355.50000 1.01056 -0.25143 -0.01670
355.60000 1.06260 -0.35915 -0.00789
355.70000 1.08442 -0.35505 0.00665
355.80000 1.04592 -0.16526 0.01944
355.90000 1.08944 -0.01642 -0.03554
356.00000 1.06859 0.08118 -0.01140
356.10000 1.03429 0.09805 0.02048
356.20000 1.09989 -0.09721 -0.00621
356.30000 1.07671 -0.32659 0.01669
356.40000 1.07321 -0.27779 -0.07175
356.50000 1.08982 -0.10255 0.04388
356.60000 1.05411 0.10336 0.00452
356.70000 1.07093 0.09386 0.00833
356.80000 1.01183 0.12492 -0.09007
356.90000 1.09597 0.01696 0.00566
357.00000 1.10442 0.15790 -0.03558
357.10000 1.06555 0.14156 -0.00131
357.20000 1.12200 0.00195 0.00922
357.30000 1.01368 0.08413 0.02130
357.40000 1.09105 0.18666 -0.03576
357.50000 1.07050 0.14081 -0.01063
357.60000 1.04903 0.10347 0.05303
357.70000 1.09378 -0.08085 -0.00316
357.80000 1.03898 -0.18794 -0.01125
357.90000 1.10077 -0.22159 0.03133
358.00000 1.08537 -0.25893 0.04124
358.10000 1.08220 -0.17161 -0.11208
358.20000 1.03700 0.05013 0.03831
358.30000 1.10573 0.11568 0.03106
358.40000 1.14905 0.07877 0.00870
358.50000 1.01528 0.12112 -0.01879
358.60000 1.07142 -0.09589 0.07396
358.70000 1.09199 -0.48151 0.01865
358.80000 1.03269 -0.55332 -0.01533
358.90000 1.07860 -0.43475 -0.01393
359.00000 1.05827 -0.26187 -0.04240
359.10000 1.06439 -0.06520 0.01068
359.20000 1.10747 0.02771 -0.00504
359.30000 1.02278 -0.10337 -0.03073
359.40000 1.10573 -0.31358 -0.03995
359.50000 1.13828 -0.22780 0.07340
359.60000 1.00317 -0.10499 -0.00238
359.70000 1.11693 0.04225 -0.03980
359.80000 1.04936 -0.12960 -0.00666
359.90000 1.11605 0.07461 0.00687
360.00000 1.01202 0.25574 -0.03053
360.10000 1.01283 0.26282 0.03324
360.20000 1.09917 0.09732 0.03621
360.30000 1.02047 -0.15063 -0.01863
360.40000 1.03918 -0.30141 0.00718
360.50000 1.13887 -0.08363 -0.00392
360.60000 1.02590 0.08620 -0.02311
360.70000 1.06623 0.05584 -0.04748
360.80000 1.08661 -0.01425 -0.01875
360.90000 1.08283 0.08913 -0.04849
361.00000 1.07205 0.10272 0.04610
361.10000 1.02590 -0.09354 0.02323
361.20000 1.05108 -0.21329 -0.03289
361.30000 1.08872 -0.09580 -0.04326
361.40000 0.94776 -0.06895 -0.01022
361.50000 1.07022 -0.07782 0.04281
361.60000 1.09480 -0.04298 -0.02142
361.70000 0.99792 -0.12800 -0.01483
361.80000 1.07311 -0.28030 0.01126
361.90000 1.04450 -0.28565 -0.05151
362.00000 1.10549 -0.25257 -0.02565
362.10000 1.08325 -0.16831 0.01550
362.20000 1.10734 -0.13615 -0.02215
362.30000 1.04902 -0.10035 -0.03172
362.40000 1.10980 -0.10316 -0.00828
362.50000 1.06391 -0.15270 0.02551
362.60000 1.07687 -0.14734 -0.02056
362.70000 1.12746 -0.16808 -0.01826
362.80000 0.98328 -0.20146 0.02263
362.90000 1.12711 -0.31031 -0.02037
363.00000 1.06443 -0.14025 -0.01664
363.10000 1.07334 0.06489 0.06759
363.20000 1.08109 0.16309 -0.05685
363.30000 1.05277 0.15695 -0.00973
363.40000 1.08555 0.14882 0.01528
363.50000 1.03353 0.26153 0.01170
363.60000 1.05868 -0.01660 -0.02594
363.70000 1.04209 -0.24918 0.00002
363.80000 1.10803 -0.38503 -0.01131
363.90000 1.04008 -0.26006 0.00833
364.00000 1.04647 0.04863 0.00142
364.10000 1.05285 0.04396 0.02177
364.20000 1.09712 0.05048 0.05894
364.30000 1.01505 0.15232 -0.01851
364.40000 1.02105 0.20127 -0.01425
364.50000 1.05359 0.09062 0.07486
364.60000 1.01081 0.03114 -0.11844
364.70000 1.08328 -0.11351 -0.03155
364.80000 1.06228 0.13463 0.06030
364.90000 1.04230 0.35972 -0.04650
365.00000 1.09765 0.24642 -0.02811
365.10000 1.05469 -0.05513 0.01539
365.20000 1.05504 -0.05794 0.05159
365.30000 1.08951 0.03766 -0.02038
365.40000 1.03431 0.19458 -0.07788
365.50000 1.07321 0.22433 0.00599
365.60000 1.00973 0.03318 0.00213
365.70000 1.10957 -0.22498 -0.03135
365.80000 1.06454 -0.11422 0.05745
365.90000 0.98747 0.10597 0.02648
366.00000 1.13841 0.16798 -0.04382
366.10000 1.00433 0.15442 0.00457
366.20000 1.10184 0.16276 -0.04022
366.30000 1.08928 -0.04263 -0.01115
366.40000 1.03357 0.01744 -0.00164
366.50000 1.06973 0.04974 0.01446
366.60000 1.11390 0.05390 -0.01185
366.70000 1.11894 -0.04332 -0.01037
366.80000 1.01687 0.10950 0.02346
366.90000 1.06954 0.13672 -0.03099
367.00000 1.02110 0.16671 -0.00830
367.10000 1.10445 0.04125 0.04185
367.20000 1.01456 -0.10200 0.05813
367.30000 1.04116 -0.05279 0.00587
367.40000 1.06690 -0.08178 -0.04089
367.50000 1.10557 -0.07698 0.04031
367.60000 1.04940 0.10727 0.00370
367.70000 1.04492 0.38124 -0.00532
367.80000 1.06689 0.49573 -0.03355
367.90000 1.04374 0.31902 0.00048
368.00000 1.05094 0.10229 -0.01750
368.10000 1.08357 0.15253 0.00897
368.20000 1.09459 0.20294 0.04845
368.30000 1.06729 0.17726 0.01084
368.40000 0.98933 0.14949 0.00182
368.50000 1.10349 0.07359 -0.04654
368.60000 1.11648 0.13738 0.01125
368.70000 0.97701 0.22322 0.03684
368.80000 1.13797 0.09275 -0.03486
368.90000 1.00356 0.02302 -0.02733
369.00000 1.08013 0.06781 0.02200
369.10000 1.08372 0.12406 0.01673
369.20000 1.05196 0.16057 0.00100
369.30000 1.03622 0.18245 0.05630
369.40000 1.02951 0.13674 -0.02292
369.50000 1.11573 -0.17023 -0.04085
369.60000 1.01611 -0.12464 0.01337
369.70000 1.12871 -0.01798 0.04152
369.80000 1.00917 -0.10179 -0.01144
369.90000 1.10351 -0.08513 -0.00153
370.00000 1.08515 -0.00773 0.06157
370.10000 1.03913 -0.00713 0.02664
370.20000 1.11790 0.12966 0.00621
370.30000 1.09236 0.13871 0.05470
370.40000 1.09925 -0.01132 -0.02026
370.50000 1.06808 0.01212 0.02039
370.60000 1.00139 0.08271 -0.02663
370.70000 1.05953 0.07745 -0.07420
370.80000 1.04569 0.05173 0.03701
370.90000 1.12714 0.08858 0.08211
371.00000 1.05679 0.22683 -0.05386
371.10000 1.14131 0.24774 0.02181
371.20000 1.06205 0.05382 0.01448
371.30000 1.07171 -0.16730 0.01896
371.40000 1.04813 -0.21184 -0.02084
371.50000 1.01487 -0.16724 0.04241
371.60000 1.09040 0.01821 -0.04895
371.70000 1.10961 0.02016 -0.02868
371.80000 0.99739 0.06523 -0.02242
371.90000 1.09263 -0.02575 -0.01714
372.00000 1.03517 -0.03438 0.07964
372.10000 1.07384 -0.01357 -0.02391
372.20000 1.02330 -0.04450 -0.04610
372.30000 1.14790 -0.27527 0.00458
372.40000 0.96833 -0.24426 0.00745
372.50000 1.11860 -0.25066 -0.01001
372.60000 1.01164 0.06303 0.02400
372.70000 1.07906 0.13520 0.02507
372.80000 1.01679 -0.04498 -0.04469
372.90000 1.08216 -0.08549 0.02302
373.00000 1.05984 -0.08239 0.05120
373.10000 1.13717 0.08646 0.02603
373.20000 1.09104 0.45297 -0.07413
373.30000 1.06443 0.35555 -0.02997
373.40000 1.13052 0.11344 0.06723
373.50000 0.98593 -0.15985 -0.00487
373.60000 1.11216 -0.26128 -0.02731
373.70000 1.00120 -0.09349 -0.04933
373.80000 1.13074 0.10423 0.02151
373.90000 1.03322 0.18608 -0.00470
374.00000 1.05029 0.11988 0.03361
374.10000 1.03993 0.15083 -0.07102
374.20000 1.10192 0.06483 0.04908
374.30000 1.04630 -0.08854 -0.06283
374.40000 1.06815 -0.26500 -0.02229
374.50000 1.11145 -0.35412 0.04686
374.60000 0.98515 -0.13981 -0.01297
374.70000 1.10982 0.14046 0.01539
374.80000 1.02796 0.31774 -0.08745
374.90000 1.05063 0.30674 0.03413
375.00000 1.05425 0.29362 0.05428
375.10000 1.10346 0.10396 0.04623
375.20000 1.10078 -0.06421 -0.08912
375.30000 1.09119 -0.07154 -0.00034
375.40000 1.03210 -0.28074 0.00481
375.50000 1.06938 -0.34579 0.00281
375.60000 1.09699 -0.18426 -0.05125
375.70000 1.06829 -0.08003 -0.01830
375.80000 1.08400 -0.26983 -0.00452
375.90000 1.12261 -0.08450 0.04166
376.00000 1.06771 0.04221 -0.03607
376.10000 1.07313 0.05832 0.01126
376.20000 1.09817 0.22119 -0.04415
376.30000 1.05345 0.26720 -0.01019
376.40000 1.08814 0.02345 0.03881
376.50000 1.09079 -0.11176 -0.00404
376.60000 1.05618 -0.32359 -0.05216
376.70000 1.05426 -0.12680 0.00424
376.80000 1.02259 0.16952 -0.03001
376.90000 1.11052 0.27726 0.09206
377.00000 1.08091 0.05174 -0.02351
377.10000 1.01842 -0.19575 -0.05154
377.20000 1.07429 -0.05590 0.01587
377.30000 1.07705 -0.02124 0.03677
377.40000 1.01409 -0.09569 -0.08455
377.50000 1.05597 -0.14827 0.03591
377.60000 1.07555 -0.09229 -0.00936
377.70000 1.00976 0.03048 -0.01919
377.80000 1.05457 0.22089 -0.02387
377.90000 1.05492 0.29364 0.06757
378.00000 1.03447 0.02713 -0.00594
378.10000 1.08422 -0.04299 -0.02570
378.20000 1.06949 0.01555 0.01560
378.30000 1.04380 0.06685 0.00454
378.40000 0.98830 0.03861 -0.01690
378.50000 1.12971 -0.09137 0.01689
378.60000 1.02654 -0.09823 0.02808
378.70000 1.10425 -0.06119 -0.02584
378.80000 1.07779 -0.05399 0.02719
378.90000 1.02761 -0.18229 -0.02067
379.00000 1.05714 -0.18758 0.03774
379.10000 1.12093 -0.13507 -0.03856
379.20000 1.00409 -0.19819 0.05774
379.30000 1.07433 -0.13475 0.02964
379.40000 1.05525 0.00020 -0.02628
379.50000 1.07759 -0.03806 -0.01099
379.60000 1.08115 -0.05477 0.04606
379.70000 1.03470 -0.03368 -0.05389
379.80000 1.08584 0.03755 -0.02121
379.90000 1.07847 0.02645 0.06111
380.00000 1.08410 0.17190 -0.07587
380.10000 1.04712 0.16934 -0.04136
380.20000 1.11007 0.03110 0.06753
380.30000 1.10940 0.01086 -0.05484
380.40000 0.98247 -0.14212 0.01846
380.50000 1.04557 -0.14650 -0.02040
380.60000 1.12148 -0.14442 0.01654
380.70000 1.03665 -0.23342 -0.02266
380.80000 1.03776 -0.24412 0.01223
380.90000 1.08085 0.02374 -0.01337
381.00000 1.04893 0.07029 0.02315
381.10000 1.07068 -0.13653 -0.03961
381.20000 1.07784 -0.15255 0.04352
381.30000 1.11924 0.09138 -0.01314
381.40000 1.00961 0.31440 -0.01923
381.50000 1.06366 0.23224 -0.00707
381.60000 1.08887 0.12831 -0.00325
381.70000 1.07849 -0.00955 -0.05282
381.80000 1.07723 -0.06016 0.00948
381.90000 0.99094 -0.10384 0.05309
382.00000 1.14038 0.02251 -0.03920
382.10000 1.06668 0.18750 -0.01559
382.20000 1.05139 0.33368 0.02796
382.30000 1.06067 0.36350 0.02444
382.40000 1.13362 0.28303 -0.05184
382.50000 0.96623 0.00045 0.02903
382.60000 1.12455 -0.25943 0.04128
382.70000 1.06377 -0.26208 -0.04071
382.80000 1.13994 -0.20149 -0.01011
382.90000 1.05360 -0.15618 0.00452
383.00000 1.12366 -0.07272 0.00522
383.10000 1.03176 0.12850 0.00978
383.20000 1.06098 0.11548 0.00825
383.30000 1.11314 -0.01879 -0.02011
383.40000 1.02704 -0.06478 -0.04145
383.50000 1.14457 0.00762 0.01713
383.60000 1.01559 0.03932 0.03511
383.70000 1.06992 0.02232 0.00273
383.80000 1.09355 -0.07895 -0.00989
383.90000 1.08804 -0.13812 -0.04700
384.00000 1.02426 0.07340 -0.02991
384.10000 1.11943 0.00990 0.00529
384.20000 1.05988 -0.01398 -0.02592
384.30000 1.10501 -0.09542 0.00993
384.40000 1.02118 -0.05789 0.00837
384.50000 1.13912 -0.08584 -0.02371
384.60000 1.03503 -0.06721 -0.07036
384.70000 1.02897 0.11078 0.00823
384.80000 1.12726 0.14806 0.04136
384.90000 0.95982 0.00864 -0.01801
385.00000 1.14613 -0.07291 -0.02972
385.10000 1.08986 0.05283 0.00635
385.20000 1.03171 0.30894 0.03103
385.30000 1.08573 0.35289 -0.08433
385.40000 1.06664 0.12515 -0.00894
385.50000 1.08843 -0.08879 0.02187
385.60000 1.08162 -0.29107 -0.04468
385.70000 1.06186 -0.20136 0.03383
385.80000 1.11985 -0.09433 0.02636
385.90000 1.01326 0.03264 -0.03516
386.00000 1.07717 0.18123 0.06027
386.10000 1.12208 0.21833 -0.01784
386.20000 1.01134 0.00224 -0.00388
386.30000 1.17255 -0.08736 0.04486
386.40000 1.03911 -0.09485 -0.00567
386.50000 1.07479 0.08970 -0.01951
386.60000 1.07669 0.11531 0.01370
386.70000 0.99834 0.10070 0.01060
386.80000 1.13056 0.09211 -0.06839
386.90000 1.08755 -0.00939 -0.01788
387.00000 1.10473 -0.02683 0.02604
387.10000 1.10464 0.04089 0.00178
387.20000 1.05101 0.24830 -0.01724
387.30000 1.09884 0.25645 0.03257
387.40000 1.13707 0.10934 -0.03605
387.50000 1.02812 0.09777 -0.03515
387.60000 1.09889 0.16777 0.01407
387.70000 1.03574 0.26984 0.02576
387.80000 1.07601 -0.01369 0.02698
387.90000 1.04113 -0.28453 -0.01498
388.00000 1.06020 -0.19751 0.01687
388.10000 1.08758 -0.03661 -0.03601
388.20000 1.02454 -0.18207 0.03830
388.30000 1.06605 -0.03798 0.01130
388.40000 1.08953 -0.14648 0.01900
388.50000 1.03138 -0.07552 -0.01807
388.60000 1.10079 0.04721 0.04221
388.70000 0.99318 0.23170 0.00549
388.80000 1.18455 0.25960 -0.08169
388.90000 1.04230 0.04219 0.04381
389.00000 1.08207 -0.04428 0.07967
389.10000 1.08563 -0.13375 -0.04623
389.20000 1.02187 -0.01015 -0.00661
389.30000 1.04813 0.12539 0.01751
389.40000 1.08733 0.21915 0.02983
389.50000 1.02481 0.07475 -0.04661
389.60000 1.13255 -0.03219 0.03099
389.70000 1.04090 -0.05952 0.00629
389.80000 1.11094 -0.00785 -0.03180
389.90000 1.06100 0.06030 -0.02425
390.00000 1.10941 0.19474 0.00118
390.10000 1.04981 0.21790 0.01169
390.20000 1.05163 0.14510 0.00979
390.30000 1.06296 -0.01102 -0.01811
390.40000 1.11257 -0.15431 -0.02417
390.50000 1.07888 -0.04087 -0.00458
390.60000 1.06101 0.10637 -0.06723
390.70000 1.01648 -0.12486 0.09099
390.80000 1.09537 -0.37435 -0.05299
390.90000 1.09530 -0.36677 -0.01622
391.00000 1.08324 -0.20241 -0.00147
391.10000 1.09410 -0.13530 -0.05569
391.20000 0.99823 -0.25183 0.02633
391.30000 1.09886 -0.06039 0.01308
391.40000 1.04385 0.01691 -0.05485
391.50000 1.08284 0.07896 0.00894
391.60000 1.07784 0.22202 -0.05310
391.70000 1.04198 0.25990 0.01187
391.80000 1.13778 0.12922 -0.03985
391.90000 1.05655 -0.15909 0.02030
392.00000 1.09956 -0.43019 -0.02700
392.10000 1.08642 -0.37106 0.00310
392.20000 0.98841 -0.26623 0.06252
392.30000 1.09673 0.05055 0.00201
392.40000 1.06100 0.21750 -0.03609
392.50000 1.06500 0.17424 0.05853
392.60000 1.04376 -0.09910 0.01856
392.70000 1.02342 -0.19644 -0.01153
392.80000 1.13040 -0.12415 -0.01110
392.90000 1.05546 -0.07746 -0.00141
393.00000 1.06271 -0.02947 -0.02019
393.10000 1.10375 0.03766 0.05918
393.20000 1.08053 0.03468 0.05233
393.30000 1.07284 -0.05295 -0.10820
393.40000 1.03155 -0.16850 0.03681
393.50000 1.10317 -0.20696 0.03446
393.60000 1.03806 -0.26675 0.02888
393.70000 1.09092 -0.42355 0.02048
393.80000 1.08704 -0.30310 -0.05761
393.90000 1.05189 -0.09596 -0.02242
394.00000 1.03281 0.01845 0.02235
394.10000 1.06674 -0.08634 -0.02250
394.20000 1.02274 0.11282 -0.00499
394.30000 1.08810 0.17324 -0.02390
394.40000 1.07626 0.06592 0.03588
394.50000 1.05125 -0.04505 0.02099
394.60000 1.05110 0.04831 -0.02870
394.70000 1.07759 0.00544 0.02471
394.80000 1.01406 0.01895 -0.00090
394.90000 1.09585 0.07861 0.01170
395.00000 1.03432 -0.18586 -0.03390
395.10000 1.08203 -0.18661 -0.02171
395.20000 1.10203 -0.02800 -0.00833
395.30000 1.07677 0.08145 0.00306
395.40000 1.04053 -0.01448 0.06413
395.50000 1.07992 -0.02130 -0.01895
395.60000 1.06181 -0.10244 -0.01416
395.70000 1.06211 -0.00316 0.02291
395.80000 1.11539 -0.00882 -0.01048
395.90000 1.02928 0.05114 -0.00759
396.00000 1.05308 -0.00101 -0.01273
396.10000 1.03347 -0.06126 0.03055
396.20000 1.12372 -0.10358 -0.08003
396.30000 1.05648 -0.19760 0.00766
396.40000 1.07183 -0.09936 0.04704
396.50000 1.03274 -0.06217 -0.08512
396.60000 1.10364 -0.00237 0.02441
396.70000 1.00772 -0.02942 0.06332
396.80000 1.05481 0.24075 -0.03888
396.90000 1.06226 0.36580 -0.00063
397.00000 1.05563 0.33935 0.09672
397.10000 1.04985 0.11650 0.06208
397.20000 1.05586 0.07688 -0.07000
397.30000 1.04028 -0.03174 -0.00925
397.40000 1.08047 0.05385 0.02468
397.50000 1.11608 0.31794 -0.00369
397.60000 1.02312 0.13140 0.01176
397.70000 1.04387 -0.10461 0.00920
397.80000 1.11333 -0.13427 -0.03117
397.90000 1.00810 -0.13366 0.01431
398.00000 1.11234 -0.02656 0.01570
398.10000 1.01103 0.01293 -0.03790
398.20000 1.06120 0.04379 -0.03146
398.30000 1.03465 -0.02443 0.01470
398.40000 1.09825 -0.08431 -0.03365
398.50000 1.02288 -0.14308 -0.03519
398.60000 1.05707 -0.18661 0.05636
398.70000 1.10669 -0.15899 -0.04090
398.80000 1.00348 -0.03836 0.04700
398.90000 1.09021 0.03741 -0.01311
399.00000 1.12697 -0.05309 0.00541
399.10000 1.03678 -0.28823 0.02720
399.20000 1.13572 -0.33047 -0.01613
399.30000 0.99134 -0.22754 -0.03130
399.40000 1.10086 -0.05330 0.01158
399.50000 1.07814 -0.07659 -0.04989
399.60000 1.07625 -0.02339 0.00291
399.70000 1.06051 -0.05244 -0.03746
399.80000 1.01818 -0.09699 0.07982
399.90000 1.14567 -0.05903 -0.01741
400.00000 1.01003 -0.05079 0.03642
400.10000 0.95885 0.08023 0.05228
400.20000 1.15936 0.29772 -0.05397
400.30000 1.00697 0.23922 -0.03310
400.40000 1.05895 0.04119 0.04808
400.50000 1.08840 -0.11670 -0.01153
400.60000 1.02564 -0.21093 -0.00852
400.70000 1.07870 -0.17043 -0.04385
400.80000 1.05945 -0.09790 0.05399
400.90000 1.07850 -0.14597 -0.07477
401.00000 1.08284 -0.20978 0.02652
401.10000 1.07848 -0.01118 0.04544
401.20000 1.02908 0.18030 0.02771
401.30000 1.11446 0.24821 0.05379
401.40000 1.00267 0.14419 -0.06327
401.50000 1.11451 -0.01274 -0.06901
401.60000 1.08199 -0.15768 0.05101
401.70000 1.01941 -0.21265 0.04632
401.80000 1.08234 -0.03642 -0.04852
401.90000 1.01761 0.22714 -0.01758
402.00000 1.05544 0.31220 0.01584
402.10000 1.08769 0.28930 0.02633
402.20000 1.06152 0.08635 -0.05070
402.30000 1.12283 -0.08370 -0.00217
402.40000 1.04649 -0.09977 0.02133
402.50000 1.06102 0.06462 0.02738
402.60000 1.05028 0.23677 0.02830
402.70000 1.04954 0.23014 -0.05685
402.80000 1.13748 0.12312 0.03928
402.90000 0.99321 -0.16521 0.01093
403.00000 1.19094 -0.09656 0.01156
403.10000 0.99879 0.00992 -0.01489
403.20000 1.05341 -0.05717 -0.04254
403.30000 1.06954 -0.07825 -0.06615
403.40000 1.09795 -0.01001 0.06355
403.50000 1.03012 -0.00428 0.02630
403.60000 1.12600 -0.16523 -0.04525
403.70000 1.02770 -0.22576 0.00784
403.80000 1.08943 -0.05941 0.00446
403.90000 1.05060 -0.05462 0.02703
404.00000 1.06805 -0.14342 0.00875
404.10000 1.02205 -0.08487 0.01173
404.20000 1.11186 -0.16695 -0.01250
404.30000 1.03216 -0.18355 0.02431
404.40000 1.05739 -0.15328 -0.00416
404.50000 1.12699 0.01216 0.02752
404.60000 1.00124 0.32634 0.05244
404.70000 1.02867 0.28497 -0.04813
404.80000 1.06834 0.23830 0.07878
404.90000 1.07186 0.04109 -0.00983
405.00000 1.07447 0.06915 0.01108
405.10000 1.05751 0.04315 -0.00932
405.20000 1.08590 0.13686 0.05161
405.30000 1.05874 0.16829 0.01549
405.40000 1.00897 0.02136 -0.03046
405.50000 1.14116 0.12892 0.04132
405.60000 1.06538 0.07858 -0.02176
405.70000 1.06222 0.05658 -0.01468
405.80000 1.05289 -0.03541 0.00029
405.90000 1.10498 -0.10845 0.03195
406.00000 1.03133 -0.01091 -0.00576
406.10000 1.05623 0.27851 -0.02053
406.20000 1.05595 0.08051 0.00391
406.30000 1.09909 -0.12662 0.09533
406.40000 1.04918 -0.15981 -0.02328
406.50000 1.10527 0.01413 0.02086
406.60000 1.01830 0.07027 0.00175
406.70000 1.10591 0.12770 -0.02216
406.80000 1.08491 0.18190 0.02543
406.90000 1.04976 0.23470 0.01217
407.00000 1.09243 0.19705 -0.00286
407.10000 1.09223 -0.00066 -0.06168
407.20000 1.03071 -0.02788 -0.01389
407.30000 1.11630 -0.07866 0.04112
407.40000 1.06301 -0.05561 0.03180
407.50000 1.02835 0.05834 0.02586
407.60000 1.10495 0.02523 -0.05384
407.70000 1.10317 0.04809 0.03531
407.80000 0.97174 0.02503 0.05034
407.90000 1.15565 0.08352 -0.06497
408.00000 1.04227 0.03220 0.02224
408.10000 1.07380 -0.03887 -0.00258
408.20000 1.05758 -0.02124 0.05134
408.30000 1.06473 -0.01582 -0.06145
408.40000 1.05672 -0.03897 0.02877
408.50000 1.11056 -0.10643 -0.08412
408.60000 1.07824 -0.02481 0.06104
408.70000 0.99129 0.01005 0.02558
408.80000 1.13246 0.01959 -0.03633
408.90000 1.03900 0.05159 -0.01192
409.00000 1.00724 0.10746 -0.03467
409.10000 1.14410 0.13733 0.02185
409.20000 1.01490 0.00221 -0.04928
409.30000 1.08164 -0.02354 0.01124
409.40000 1.02992 -0.15401 -0.00384
409.50000 1.08872 -0.25221 -0.00084
409.60000 1.05661 -0.00919 0.01064
409.70000 1.09839 0.01765 -0.02808
409.80000 1.04660 -0.10907 -0.00912
409.90000 1.07616 -0.06867 0.00967
410.00000 1.02530 0.12247 -0.00183
410.10000 1.08890 0.12608 0.00457
410.20000 1.06114 0.11285 0.04485
410.30000 1.03302 0.17658 0.01603
410.40000 1.04555 0.14515 -0.01214
410.50000 1.07208 -0.10405 -0.02697
410.60000 1.11384 -0.07474 -0.01100
410.70000 1.07814 -0.00614 0.06086
410.80000 1.03167 -0.10348 0.01522
410.90000 1.17264 -0.10195 -0.07986
411.00000 0.97077 -0.22913 0.03013
411.10000 1.11927 0.00428 0.02792
411.20000 1.08829 -0.01751 -0.02050
411.30000 1.06920 -0.11081 -0.05723
411.40000 1.06662 -0.01181 0.03101
411.50000 1.11269 0.30634 -0.00096
411.60000 1.02826 0.24245 -0.05969
411.70000 1.10278 -0.01167 0.03990
411.80000 1.07899 -0.10387 0.03307
411.90000 1.05763 0.05551 0.06708
412.00000 1.11730 0.19211 -0.03613
412.10000 1.08787 0.21586 -0.03229
412.20000 0.98165 0.12128 0.01239
412.30000 1.09648 -0.01309 0.01735
412.40000 1.08050 -0.10953 0.00057
412.50000 1.08221 -0.14840 -0.01075
412.60000 1.11041 -0.19287 -0.00420
412.70000 1.02720 -0.03286 -0.01920
412.80000 1.13581 0.05603 0.02702
412.90000 1.03622 -0.11663 0.03202
413.00000 1.03238 -0.16216 -0.02623
413.10000 1.07758 0.14555 0.03698
413.20000 1.03150 0.30529 -0.00585
413.30000 1.04941 0.03864 -0.03242
413.40000 1.09467 -0.09630 -0.02177
413.50000 1.08092 -0.17826 0.07741
413.60000 1.07839 -0.05415 -0.03254
413.70000 1.05699 0.03652 -0.01718
413.80000 1.02171 -0.05318 -0.00201
413.90000 1.06201 -0.12091 0.05495
414.00000 1.09994 -0.18600 -0.01036
414.10000 1.05194 -0.18027 -0.03989
414.20000 1.09022 -0.12902 0.00581
414.30000 1.08246 -0.10717 0.02610
414.40000 0.99870 -0.21852 -0.01481
414.50000 1.08169 -0.00900 0.01662
414.60000 1.03302 0.19553 0.00484
414.70000 1.08724 0.03953 0.01141
414.80000 1.10312 0.02288 0.00454
414.90000 1.04527 0.04251 -0.01119
415.00000 1.03501 -0.02534 0.02192
415.10000 1.04706 -0.03864 0.02423
415.20000 1.05346 -0.02353 0.02011
415.30000 1.08506 0.00989 0.00771
415.40000 1.05333 0.10420 -0.01100
415.50000 1.03497 0.11374 -0.03881
415.60000 1.09583 0.10511 0.00971
415.70000 1.07799 0.05473 0.00257
415.80000 1.06681 -0.14110 -0.02394
415.90000 1.03239 -0.05169 0.03239
416.00000 1.08220 0.02829 -0.04778
416.10000 1.07683 0.31600 0.03031
416.20000 1.06489 0.31035 -0.03074
416.30000 1.07969 0.19450 0.03189
416.40000 1.07151 0.00440 0.03339
416.50000 1.07515 -0.05052 -0.03951
416.60000 1.03901 0.21839 -0.03172
416.70000 1.04655 0.28115 0.03632
416.80000 1.07464 0.14289 0.03531
416.90000 1.04573 -0.06404 0.01851
417.00000 1.07579 -0.16488 -0.05252
417.10000 1.08983 -0.09919 0.01185
417.20000 1.06791 -0.03198 -0.00640
417.30000 1.02906 -0.05037 -0.06841
417.40000 1.12016 0.00094 0.02320
417.50000 1.02945 -0.06451 -0.02914
417.60000 1.02583 -0.04582 -0.00006
417.70000 1.05397 0.04655 0.01435
417.80000 1.05058 -0.02334 -0.00701
417.90000 1.12776 -0.11346 -0.00358
418.00000 1.05177 -0.06762 -0.05733
418.10000 1.09897 0.18551 0.00548
418.20000 1.11119 0.24932 0.03476
418.30000 1.03619 0.18564 -0.00980
418.40000 1.11184 0.12969 0.00468
418.50000 1.02267 -0.04014 -0.02295
418.60000 1.05631 -0.17794 -0.03936
418.70000 1.04317 -0.20180 0.01320
418.80000 1.07741 -0.13435 -0.02211
418.90000 1.09183 0.09320 0.00851
419.00000 1.08015 0.03609 0.00967
419.10000 1.06735 -0.17917 -0.06371
419.20000 1.03618 -0.18279 -0.00954
419.30000 1.07816 -0.08544 0.00001
419.40000 1.05089 -0.00039 0.01834
419.50000 1.14825 -0.20411 -0.03220
419.60000 1.06306 -0.31534 0.00853
419.70000 0.99303 -0.15079 0.02363
419.80000 1.08856 -0.13189 -0.06367
419.90000 1.04599 -0.15446 -0.02341
420.00000 1.05609 -0.07940 0.06966
420.10000 1.10160 -0.07325 0.02626
420.20000 1.04306 -0.04402 -0.00510
420.30000 1.03777 -0.08102 -0.02775
420.40000 1.14556 -0.02697 0.00397
420.50000 1.09037 0.12670 0.03153
420.60000 1.03896 0.03303 0.00933
420.70000 1.08784 -0.07887 -0.02138
420.80000 1.07208 0.00163 0.01518
420.90000 1.05604 0.01781 -0.00299
421.00000 1.06170 0.12073 -0.06532
421.10000 1.07698 0.12148 0.03236
421.20000 1.05699 0.10513 0.01743
421.30000 1.05489 -0.01414 0.03823
421.40000 1.06858 -0.14262 0.01541
421.50000 1.07161 -0.19873 -0.02106
421.60000 1.06679 -0.19289 0.06380
421.70000 1.07725 -0.03793 -0.03359
421.80000 1.06215 -0.07702 0.04156
421.90000 1.06432 -0.15741 0.03320
422.00000 1.09919 -0.12083 0.00015
422.10000 1.01411 -0.06581 0.03211
422.20000 1.03505 -0.02060 -0.01000
422.30000 1.09172 -0.05320 -0.05838
422.40000 1.07304 -0.01431 -0.01017
422.50000 1.02544 0.00027 -0.04465
422.60000 1.09452 -0.08561 0.04700
422.70000 1.01937 -0.15728 -0.01126
422.80000 1.05773 -0.02422 -0.05047
422.90000 1.07748 0.27910 -0.02047
423.00000 1.09220 0.22412 0.04637
423.10000 1.06818 -0.02855 -0.02041
423.20000 1.08208 -0.07901 0.03481
423.30000 1.04626 0.08450 -0.03260
423.40000 1.10664 0.05977 0.02685
423.50000 1.09446 0.25072 0.05782
423.60000 1.11493 0.17796 -0.03510
423.70000 1.02543 -0.24260 -0.06615
423.80000 1.06843 -0.27841 0.07145
423.90000 1.06442 -0.16075 0.06061
424.00000 1.08401 -0.00218 0.00755
424.10000 1.11000 0.29681 -0.06203
424.20000 1.04339 0.32049 0.06353
424.30000 1.09710 0.05595 0.02751
424.40000 1.09096 -0.11148 -0.05404
424.50000 0.97640 -0.22037 -0.02067
424.60000 1.15268 -0.14915 0.05099
424.70000 1.02634 -0.04352 0.01122
424.80000 1.11802 0.13596 -0.04810
424.90000 1.03686 0.12236 0.01433
425.00000 1.03862 0.03363 0.03487
425.10000 1.09321 0.08673 -0.04101
425.20000 1.06032 0.09194 -0.01401
425.30000 1.05555 -0.08321 -0.00396
425.40000 0.98824 -0.16753 -0.00429
425.50000 1.16116 -0.20160 0.01559
425.60000 1.00984 0.04066 0.03863
425.70000 1.07532 0.47377 0.04360
425.80000 1.03119 0.50166 -0.01295
425.90000 1.13616 0.14441 -0.02778
426.00000 1.06543 -0.00921 0.00016
426.10000 1.03108 -0.18315 0.02241
426.20000 1.07514 -0.25392 -0.02241
426.30000 1.04597 -0.01474 -0.01261
426.40000 1.08569 0.10852 -0.00980
426.50000 1.07580 0.12692 -0.05188
426.60000 0.97814 0.03805 -0.02519
426.70000 1.15267 -0.08913 0.01072
426.80000 1.06703 -0.02110 -0.05758
426.90000 1.02402 0.04157 -0.05255
427.00000 1.11139 -0.01270 0.00583
427.10000 1.03785 0.02913 0.00563
427.20000 1.14067 0.05525 -0.02289
427.30000 1.03469 0.12378 -0.04351
427.40000 1.07375 0.26364 0.01618
427.50000 1.10991 0.21213 -0.02215
427.60000 1.04580 -0.04745 -0.01464
427.70000 1.08857 0.05617 0.00896
427.80000 1.05015 -0.05463 0.04565
427.90000 1.08563 0.07428 -0.04148
428.00000 1.02735 0.05114 -0.00440
428.10000 1.04227 -0.00050 0.08055
428.20000 1.08194 -0.08435 -0.02748
428.30000 1.06010 -0.14025 -0.02640
428.40000 1.03113 -0.03405 0.00499
428.50000 1.14051 -0.07486 -0.03927
428.60000 0.98759 -0.08337 0.02209
428.70000 1.06038 0.11564 -0.01949
428.80000 1.16475 0.23903 0.00229
428.90000 1.03637 0.15171 0.02774
429.00000 1.10561 0.02662 0.01243
429.10000 1.04101 -0.02175 0.03342
429.20000 1.08477 0.06533 -0.00727
429.30000 1.04170 0.07829 0.06324
429.40000 1.11125 -0.00637 0.00454
429.50000 1.00790 -0.07548 -0.06278
429.60000 1.05593 -0.15729 0.00692
429.70000 1.04994 -0.23695 0.03997
429.80000 1.10536 -0.11565 -0.02905
429.90000 1.08721 -0.14145 -0.00623
430.00000 1.06768 -0.17228 -0.00121
430.10000 1.07348 -0.04880 0.01508
430.20000 1.05895 0.00061 0.00137
430.30000 1.09232 0.12287 -0.01614
430.40000 1.03267 0.06420 0.05506
430.50000 1.13729 0.00981 -0.02181
430.60000 1.04474 0.03895 0.01290
430.70000 1.10496 0.02426 -0.02835
430.80000 1.09823 0.07474 0.02727
430.90000 1.01558 0.15325 -0.02776
431.00000 1.08259 0.10667 -0.01978
431.10000 1.08364 0.08530 0.01877
431.20000 1.06647 0.15399 -0.04158
431.30000 1.06427 0.24561 0.01316
431.40000 1.10633 0.08435 -0.02636
431.50000 1.03809 -0.00854 0.00407
431.60000 1.15178 -0.09560 -0.05988
431.70000 1.07243 -0.09291 -0.04733
431.80000 1.07610 -0.02419 0.05533
431.90000 1.06655 0.15108 -0.02761
432.00000 1.08666 0.01259 -0.06858
432.10000 1.10756 -0.05280 0.01587
432.20000 1.01740 -0.06829 0.01545
432.30000 1.10077 0.07930 0.00890
432.40000 1.08156 0.09197 -0.02015
432.50000 0.96888 0.00029 -0.01871
432.60000 1.16814 -0.13836 -0.03225
432.70000 1.02938 -0.06508 0.03464
432.80000 1.12890 -0.14323 -0.01570
432.90000 1.09065 -0.05477 -0.02103
433.00000 1.06637 -0.01009 0.02293
433.10000 1.06198 -0.02472 0.01088
433.20000 1.05880 0.04744 0.01752
433.30000 1.06543 -0.15325 -0.06104
433.40000 1.06688 -0.18767 0.00639
433.50000 1.11165 0.19519 0.08116
433.60000 0.99301 0.18139 -0.02131
433.70000 1.12419 0.01488 -0.04169
433.80000 1.09051 0.06268 0.00974
433.90000 1.11253 -0.07703 0.00846
434.00000 1.02226 -0.25863 -0.02740
434.10000 1.04953 -0.32400 -0.02592
434.20000 1.08125 -0.16563 0.04479
434.30000 1.05859 -0.18429 -0.00609
434.40000 1.11192 -0.09174 -0.01936
434.50000 1.07249 0.12604 0.02438
434.60000 1.03638 0.21610 -0.00755
434.70000 1.08403 -0.04407 -0.01997
434.80000 1.03721 -0.34024 0.02224
434.90000 1.06566 -0.15944 -0.07071
435.00000 1.07608 0.18986 0.00515
435.10000 1.06174 0.12858 -0.00297
435.20000 1.11725 -0.18776 -0.01879
435.30000 1.10161 -0.19837 -0.01649
435.40000 1.03176 -0.03512 -0.02349
435.50000 1.14353 0.17154 -0.03240
435.60000 1.07146 0.05797 -0.00379
435.70000 1.02430 -0.12746 0.03911
435.80000 1.15275 -0.15625 -0.03190
435.90000 1.05807 0.04907 0.01023
436.00000 1.02917 0.18310 -0.00276
436.10000 1.06336 0.08118 -0.01302
436.20000 1.05932 -0.02727 -0.04365
436.30000 1.07395 0.08032 0.02575
436.40000 1.07708 0.06279 0.01702
436.50000 1.05560 -0.11422 -0.00753
436.60000 1.08430 -0.31219 -0.00028
436.70000 1.06047 -0.16217 -0.05383
436.80000 1.13078 -0.07742 0.03748
436.90000 1.13625 -0.13481 -0.01327
437.00000 1.03555 -0.08824 -0.01414
437.10000 1.11508 0.00615 -0.02953
437.20000 1.00093 0.06210 0.04948
437.30000 1.09422 -0.06886 -0.02486
437.40000 1.05041 -0.16905 0.03747
437.50000 1.10211 -0.13088 0.04685
437.60000 1.04440 -0.05991 -0.01891
437.70000 1.06469 -0.18665 0.00536
437.80000 1.11014 -0.20345 -0.00124
437.90000 1.01193 -0.19795 0.01793
438.00000 1.11324 0.12305 0.02430
438.10000 1.09087 0.18394 -0.00551
438.20000 1.00777 0.17384 -0.02421
438.30000 1.09797 -0.01940 -0.00208
438.40000 1.03751 -0.20957 0.05706
438.50000 1.06225 -0.09954 0.00952
438.60000 1.07140 -0.06838 -0.05173
438.70000 1.04584 0.18546 -0.00361
438.80000 1.04963 0.35264 0.01634
438.90000 1.07484 0.34693 -0.08053
439.00000 1.08220 0.00961 0.01401
439.10000 1.05892 -0.03463 0.01754
439.20000 1.04770 -0.00866 -0.02932
439.30000 1.13490 0.01052 -0.00667
439.40000 1.05668 -0.07058 0.02631
439.50000 1.05840 -0.05186 0.05572
439.60000 1.07687 0.07065 -0.04591
439.70000 1.02478 -0.04933 0.00147
439.80000 1.06332 -0.08196 0.03771
439.90000 1.01643 0.01864 0.03104
440.00000 1.09206 0.21797 0.04155
440.10000 1.05544 0.28378 -0.05704
440.20000 0.99407 0.13315 0.06758
440.30000 1.12403 0.03958 -0.03759
440.40000 1.06449 0.22387 0.01847
440.50000 1.05880 0.32360 -0.02477
440.60000 1.12657 0.19079 -0.02768
440.70000 1.02576 0.07701 0.01150
440.80000 1.08501 -0.05824 -0.01666
440.90000 1.13876 -0.23161 -0.00951
441.00000 1.04201 -0.16005 0.05192
441.10000 1.05945 -0.06973 -0.00957
441.20000 1.03934 0.06088 -0.05687
441.30000 1.10758 0.14451 0.04238
441.40000 1.06761 0.06664 -0.02608
441.50000 1.09078 -0.17438 -0.01494
441.60000 1.10604 -0.00787 0.00858
441.70000 1.12517 0.34498 0.04715
441.80000 1.01089 0.40868 -0.06351
441.90000 1.12249 0.47179 -0.01537
442.00000 1.05777 0.30875 0.01258
442.10000 1.06324 0.19151 -0.01419
442.20000 1.07088 0.10839 0.05083
442.30000 1.18096 0.09369 -0.00224
442.40000 1.04411 0.22228 -0.05089
442.50000 1.09377 0.24115 0.02049
442.60000 1.10487 0.15777 -0.01187
442.70000 1.10931 -0.00642 -0.03264
442.80000 1.04751 -0.16498 0.02199
442.90000 1.11948 -0.21170 0.01507
443.00000 1.09414 -0.00411 0.02193
443.10000 1.04692 0.09615 0.05317
443.20000 1.08185 -0.04408 -0.04421
443.30000 1.01193 -0.13619 0.03372
443.40000 1.15323 -0.05587 0.07385
443.50000 1.06211 0.15450 -0.00211
443.60000 1.08262 0.20437 -0.01949
443.70000 1.02617 0.21532 0.01013
443.80000 1.11531 0.15520 0.03064
443.90000 1.01896 0.16184 -0.00501
444.00000 1.12236 0.07820 0.01173
444.10000 1.05625 -0.26022 -0.02273
444.20000 1.10668 -0.41536 0.04641
444.30000 1.01482 -0.25452 -0.01905
444.40000 1.07390 -0.06197 -0.01912
444.50000 1.10466 0.00261 -0.02403
444.60000 1.05753 0.04299 0.01591
444.70000 1.05621 0.00717 -0.01340
444.80000 1.04292 -0.00168 0.01327
444.90000 1.10128 0.06028 -0.01763
445.00000 1.06846 0.17682 -0.01431
445.10000 1.04120 0.12134 0.02527
445.20000 1.02117 0.02208 0.00047
445.30000 1.04344 0.02363 0.02937
445.40000 1.12007 0.01966 0.03964
445.50000 1.05241 0.01935 -0.04461
445.60000 1.05350 0.15048 0.05681
445.70000 1.07169 -0.02317 0.01704
445.80000 1.11369 -0.17381 -0.00085
445.90000 1.05367 -0.11457 -0.03274
446.00000 1.04679 -0.27833 0.06626
446.10000 1.11240 -0.21562 0.06733
446.20000 1.06109 0.11173 -0.05584
446.30000 1.09388 0.09280 0.02566
446.40000 1.11455 -0.04339 0.02998
446.50000 1.09994 -0.16894 0.01115
446.60000 1.05356 -0.29050 0.03944
446.70000 1.03549 -0.18861 0.02382
446.80000 1.07623 -0.14371 -0.05000
446.90000 1.09174 -0.14800 0.02422
447.00000 1.01389 0.04868 -0.03065
447.10000 1.10908 0.37770 0.01688
447.20000 1.02985 0.45576 -0.03659
447.30000 1.07396 0.28669 0.00741
447.40000 1.06159 0.16112 0.02203
447.50000 1.06446 0.08232 -0.04895
447.60000 1.11990 0.09392 -0.00929
447.70000 0.95357 -0.04367 0.01923
447.80000 1.08816 0.03110 0.02293
447.90000 1.02140 -0.01771 0.02467
448.00000 1.04911 -0.10649 -0.03352
448.10000 1.03721 -0.10349 0.06412
448.20000 1.09566 -0.22045 0.04359
448.30000 1.01226 -0.09853 -0.10427
448.40000 1.10399 -0.01788 -0.03894
448.50000 1.10728 -0.02117 0.07134
448.60000 0.99417 -0.14140 0.03595
448.70000 1.08170 -0.37663 -0.05299
448.80000 1.03211 -0.22106 0.03925
448.90000 1.10201 0.01710 0.00236
449.00000 1.01992 -0.08555 0.00622
449.10000 1.04023 -0.07659 0.00160
449.20000 1.09114 -0.01312 0.05771
449.30000 0.99337 -0.10267 -0.04150
449.40000 1.09695 -0.17943 -0.04856
449.50000 1.08669 -0.10088 0.04058
449.60000 1.09142 0.02001 0.05659
449.70000 1.08278 -0.04522 -0.06130
449.80000 1.06571 -0.20305 -0.01441
449.90000 1.07750 -0.25426 -0.03294
450.00000 1.09177 -0.20166 -0.00638
450.10000 0.93083 0.02210 0.04375
450.20000 1.15310 0.26477 0.01495
450.30000 1.02133 0.30367 -0.02522
450.40000 1.05364 0.17557 -0.04852
450.50000 1.04627 -0.08681 -0.04557
450.60000 1.09811 -0.30884 0.03888
450.70000 1.07419 -0.30113 -0.04861
450.80000 1.10540 -0.19448 -0.00260
450.90000 0.99288 -0.01661 0.02500
451.00000 1.09069 0.18984 -0.03285
451.10000 1.00612 0.11170 -0.00949
451.20000 1.07169 -0.00237 0.03693
451.30000 1.08133 -0.17307 -0.01463
451.40000 1.08792 -0.24952 0.01070
451.50000 1.06238 -0.16369 -0.00046
451.60000 1.10550 -0.17041 -0.00976
451.70000 1.01942 -0.10633 0.02107
451.80000 1.07005 -0.13063 -0.01769
451.90000 1.07309 0.15854 -0.00612
452.00000 1.06420 0.20689 0.03277
452.10000 1.09582 -0.04838 0.05925
452.20000 1.06523 -0.11833 -0.08035
452.30000 1.01368 0.12866 0.03160
452.40000 1.05283 0.11260 0.00694
452.50000 1.08462 0.12972 -0.03191
452.60000 1.07298 -0.00710 -0.00754
452.70000 1.07951 0.18039 0.00359
452.80000 1.08482 0.30012 -0.02646
452.90000 1.09584 0.12661 0.06725
453.00000 1.04055 -0.23792 -0.04719
453.10000 1.10653 -0.24701 -0.00437
453.20000 0.96518 -0.17877 0.04709
453.30000 1.14978 -0.10374 -0.01341
453.40000 1.06003 -0.20902 0.03649
453.50000 1.07644 0.11257 0.00361
453.60000 1.10952 0.26560 -0.03535
453.70000 1.05946 0.15744 0.02009
453.80000 1.13473 0.07712 0.01551
453.90000 1.00529 0.06825 0.00816
454.00000 1.12526 0.12226 -0.03369
454.10000 1.05964 0.30956 0.02259
454.20000 1.07770 0.29079 0.06373
454.30000 1.13539 -0.15550 -0.00109
454.40000 1.02180 -0.18849 -0.02090
454.50000 1.07321 -0.19773 0.00875
454.60000 1.08832 -0.31569 -0.00588
454.70000 1.12539 -0.18079 -0.00220
454.80000 1.01120 0.01269 0.00725
454.90000 1.14300 0.05184 0.04724
455.00000 1.00333 0.07366 -0.01016
455.10000 1.11052 0.03023 -0.01144
455.20000 1.04979 0.05856 0.01187
455.30000 1.08508 -0.01379 0.00562
455.40000 1.05190 0.06822 -0.00896
455.50000 1.03633 -0.03635 -0.02077
455.60000 1.09360 -0.17869 0.01313
455.70000 1.05386 -0.17910 -0.00023
455.80000 1.09825 -0.04827 -0.00193
455.90000 1.07436 0.11644 -0.04492
456.00000 1.03920 0.26708 0.02419
456.10000 1.09109 0.01192 -0.01602
456.20000 1.13062 -0.15385 -0.01608
456.30000 1.03183 -0.15157 0.08488
456.40000 1.12412 -0.14147 -0.02273
456.50000 1.05003 -0.12607 -0.07150
456.60000 1.09517 0.18962 -0.01459
456.70000 1.05648 0.20237 0.02025
456.80000 1.07090 0.07845 -0.01867
456.90000 1.06028 0.04313 -0.01208
457.00000 1.06541 -0.03959 0.04951
457.10000 1.07708 0.11499 0.01975
457.20000 1.07393 0.12187 -0.03661
457.30000 1.05767 0.05663 0.01458
457.40000 1.09702 0.22927 0.02101
457.50000 1.10142 0.24312 -0.08444
457.60000 1.06429 0.12862 0.02254
457.70000 1.01587 0.14433 -0.01351
457.80000 1.09408 0.08890 0.06872
457.90000 1.07965 -0.08900 0.00005
458.00000 1.09291 -0.25400 -0.03867
458.10000 1.07202 -0.24636 0.01845
458.20000 1.08827 -0.12361 0.03076
458.30000 1.08115 0.17602 -0.09705
458.40000 1.06369 0.15717 0.00230
458.50000 1.05937 -0.09661 0.07775
458.60000 1.06905 0.02912 -0.00734
458.70000 1.07022 0.16267 0.02104
458.80000 1.04578 0.10209 0.00883
458.90000 1.07449 -0.00144 0.02408
459.00000 1.00309 0.12707 0.02373
459.10000 1.09726 0.07707 -0.06752
459.20000 1.07154 0.01164 0.05247
459.30000 1.01657 0.09241 -0.00880
459.40000 1.03664 0.22402 0.00602
459.50000 1.11705 0.34464 -0.05968
459.60000 0.97044 0.27694 0.02656
459.70000 1.13097 0.13765 -0.01448
459.80000 1.05294 -0.09456 -0.02876
459.90000 1.02660 -0.18731 0.02017
460.00000 1.12425 -0.30370 -0.03082
460.10000 0.97376 -0.15387 0.00154
460.20000 1.11058 0.08220 0.03843
460.30000 1.04960 0.02619 0.01267
460.40000 1.08686 -0.02119 -0.04314
460.50000 1.09131 -0.02542 -0.00074
460.60000 1.05655 -0.06528 0.01504
460.70000 1.10241 -0.16176 -0.04007
460.80000 1.06494 -0.17186 0.04752
460.90000 1.07266 -0.05469 -0.05915
461.00000 1.05425 0.06284 0.00353
461.10000 1.03522 0.28402 0.06993
461.20000 1.12555 0.19908 0.00179
461.30000 1.05593 0.10336 -0.03101
461.40000 1.05247 0.25678 -0.00844
461.50000 1.07793 0.10031 0.08296
461.60000 1.06915 0.01958 0.02033
461.70000 1.03220 0.07180 -0.04813
461.80000 1.09326 0.10542 0.01775
461.90000 1.08784 0.19280 0.03591
462.00000 1.03124 0.22871 0.00935
462.10000 1.13501 0.13904 -0.03004
462.20000 1.02599 -0.05481 -0.02717
462.30000 1.06908 -0.07695 0.01284
462.40000 1.10321 -0.00726 0.01481
462.50000 0.98580 0.11947 -0.02479
462.60000 1.10150 0.00303 -0.02493
462.70000 1.01553 -0.00909 0.02632
462.80000 1.11749 0.16054 0.02213
462.90000 1.04258 0.09990 -0.04393
463.00000 1.03950 -0.10192 -0.00738
463.10000 1.09201 -0.04857 0.01127
463.20000 1.05820 -0.01365 -0.03188
463.30000 1.03574 -0.15830 0.00419
463.40000 1.11237 -0.24146 0.08252
463.50000 1.00883 -0.12210 -0.03188
463.60000 1.12381 0.02784 -0.03873
463.70000 1.05836 0.07749 0.04679
463.80000 1.01716 -0.12500 0.01751
463.90000 1.06668 -0.00191 -0.07968
464.00000 1.08821 0.04663 0.00490
464.10000 1.08745 -0.09920 0.02845
464.20000 1.05426 -0.10257 -0.05951
464.30000 1.12415 -0.08978 -0.01404
464.40000 1.03738 -0.00186 0.08856
464.50000 1.09694 0.14453 0.04480
464.60000 1.03874 -0.03406 -0.07623
464.70000 1.07392 -0.08849 0.00939
464.80000 1.06678 -0.07182 0.03990
464.90000 1.04906 -0.17543 -0.02909
465.00000 1.05938 -0.15936 -0.01801
465.10000 1.08666 -0.27620 -0.00250
465.20000 0.98581 -0.23430 0.00801
465.30000 1.19492 0.00004 0.02082
465.40000 1.03552 0.29508 -0.05761
465.50000 1.09307 0.10776 0.06775
465.60000 1.07371 0.01767 -0.00617
465.70000 1.00770 -0.08098 -0.09876
465.80000 1.09284 0.05092 0.06453
465.90000 1.06672 -0.06919 0.00962
466.00000 1.07237 -0.10067 -0.03714
466.10000 1.02888 -0.09836 -0.03272
466.20000 1.13294 -0.14734 -0.00774
466.30000 1.06199 -0.00976 0.08057
466.40000 1.02151 0.08745 -0.01820
466.50000 1.11422 0.04748 -0.04010
466.60000 1.06492 0.05232 0.05313
466.70000 1.00854 0.13709 -0.04441
466.80000 1.08642 0.25546 -0.02176
466.90000 1.05222 0.05425 0.07575
467.00000 1.07480 -0.17561 0.01706
467.10000 1.09198 -0.08915 0.04161
467.20000 1.03872 -0.05508 0.01954
467.30000 1.07634 -0.08126 -0.06012
467.40000 1.04229 0.00296 -0.00692
467.50000 1.05884 0.04135 0.08941
467.60000 1.05720 -0.01624 -0.02811
467.70000 1.02533 0.01363 -0.07435
467.80000 1.11898 0.04823 0.04571
467.90000 1.05400 -0.03253 0.02946
468.00000 1.04251 -0.01595 0.01292
468.10000 1.15280 0.09091 -0.02618
468.20000 1.02664 0.23391 0.00013
468.30000 1.09254 0.25671 0.00532
468.40000 0.99354 -0.01148 0.02582
468.50000 1.13567 -0.12070 -0.00872
468.60000 0.98778 0.04890 0.01357
468.70000 1.17574 0.10450 0.00167
468.80000 1.07387 0.08840 0.04585
468.90000 1.04656 0.17821 0.01366
469.00000 1.05999 0.22552 -0.08874
469.10000 1.05135 0.03915 -0.01719
469.20000 1.10567 -0.26071 0.03981
469.30000 1.08303 -0.18095 0.01397
469.40000 1.01482 -0.15710 -0.06996
469.50000 1.14179 -0.21114 0.05119
469.60000 1.07277 -0.22923 0.06128
469.70000 1.00483 -0.35386 0.00950
469.80000 1.16491 -0.08441 -0.03467
469.90000 1.00278 -0.01533 0.03993
470.00000 1.08002 -0.07247 0.02624
470.10000 1.09365 0.02049 0.01144
470.20000 0.98470 -0.12140 -0.03712
470.30000 1.07672 -0.10138 0.01212
470.40000 1.09755 -0.03239 0.01488
470.50000 1.01678 -0.01976 0.01831
470.60000 1.18158 0.07081 0.01815
470.70000 0.99913 0.04405 0.04095
470.80000 1.03607 -0.05389 -0.00457
470.90000 1.07217 -0.07312 0.00261
471.00000 1.02390 -0.06514 -0.01270
471.10000 1.07735 -0.06760 0.04092
471.20000 1.10387 -0.15526 0.01510
471.30000 1.06540 -0.37028 0.03051
471.40000 1.06695 -0.20204 -0.01440
471.50000 1.03250 0.04971 -0.05843
471.60000 1.07187 0.19940 0.06248
471.70000 1.12649 0.13428 -0.01305
471.80000 1.04101 -0.27963 -0.04303
471.90000 1.09762 -0.37077 -0.00335
472.00000 1.10335 -0.11088 0.04533
472.10000 1.01746 0.12839 0.00455
472.20000 1.07864 0.15204 -0.02194
472.30000 1.06637 -0.07870 0.02950
472.40000 1.08474 -0.26267 0.10284
472.50000 1.08952 -0.13936 -0.05030
472.60000 1.09064 -0.04381 -0.05093
472.70000 1.02222 0.02189 0.04179
472.80000 1.15047 -0.06665 0.00064
472.90000 1.04532 -0.12268 -0.02503
473.00000 1.07078 -0.02329 0.01465
473.10000 1.11132 0.18359 -0.02002
473.20000 1.01742 0.25478 -0.01948
473.30000 1.10054 0.16725 -0.04553
473.40000 1.04993 0.06386 0.03159
473.50000 1.00461 -0.06121 -0.01659
473.60000 1.11256 -0.03260 0.02095
473.70000 1.00415 0.00208 -0.02443
473.80000 1.14335 -0.15440 -0.01424
473.90000 1.05995 -0.01302 0.02920
474.00000 1.05466 0.01446 -0.00893
474.10000 1.07980 0.03069 0.05791
474.20000 0.98860 0.20053 0.03164
474.30000 1.09050 0.06337 0.00190
474.40000 1.09794 -0.03577 -0.00892
474.50000 1.06358 -0.27540 0.02563
474.60000 1.04076 -0.31369 0.02039
474.70000 1.09877 -0.26405 -0.01280
474.80000 1.07238 -0.19264 -0.03972
474.90000 1.09728 -0.03357 0.06481
475.00000 1.03808 -0.00010 -0.03335
475.10000 1.08296 0.07722 -0.02479
475.20000 1.10217 -0.13458 0.03772
475.30000 1.06116 -0.25180 0.00935
475.40000 1.06655 -0.03265 -0.01806
475.50000 1.05715 0.17303 0.02973
475.60000 1.09072 0.05842 0.00555
475.70000 1.02259 -0.10246 -0.00484
475.80000 1.12182 -0.15224 0.02916
475.90000 1.13372 -0.09486 0.02079
476.00000 0.93636 0.00747 -0.07892
476.10000 1.17644 0.05131 -0.00232
476.20000 1.05728 0.07986 0.10483
476.30000 1.02613 0.20387 0.00472
476.40000 1.08662 0.34401 -0.05407
476.50000 1.04651 0.26877 0.00653
476.60000 1.03989 0.05741 0.01753
476.70000 1.11099 -0.14498 -0.01957
476.80000 1.05206 -0.23604 -0.01256
476.90000 1.05080 -0.11123 0.04623
477.00000 1.02012 -0.09471 -0.02344
477.10000 1.12021 -0.07766 0.03903
477.20000 1.01595 0.30478 -0.01327
477.30000 1.07605 0.35253 -0.07343
477.40000 1.07466 0.20065 0.05720
477.50000 1.04635 0.27368 -0.03970
477.60000 1.05581 0.11947 -0.01194
477.70000 1.10527 0.05197 0.00227
477.80000 1.05312 0.04596 0.03793
477.90000 1.15655 -0.13330 0.03142
478.00000 1.01984 -0.07583 -0.00451
478.10000 1.09662 0.10405 -0.00640
478.20000 1.09550 0.02732 0.01272
478.30000 1.02586 0.04132 -0.02217
478.40000 1.07681 0.31637 -0.01875
478.50000 1.05110 0.24767 -0.03735
478.60000 1.04481 0.04396 0.00077
478.70000 1.07733 -0.07148 -0.00583
478.80000 1.04853 -0.11894 -0.02566
478.90000 1.05670 -0.13392 0.05210
479.00000 1.05086 0.08313 -0.01824
479.10000 1.07412 0.33227 -0.02292
479.20000 1.06656 0.09954 0.00453
479.30000 1.05474 0.08311 0.02737
479.40000 1.02000 -0.03136 -0.04027
479.50000 1.17228 -0.12152 0.09721
479.60000 1.01323 -0.27935 -0.05272
479.70000 1.13812 -0.29878 -0.03613
479.80000 1.08936 -0.01788 0.03655
479.90000 1.00879 0.06783 -0.01577
480.00000 1.12782 0.15469 0.00677
480.10000 1.08188 0.08536 -0.00591
480.20000 1.04374 0.16451 -0.04617
480.30000 1.08546 0.21005 0.05574
480.40000 1.13957 0.00065 -0.00307
480.50000 1.07636 -0.11109 -0.00716
480.60000 1.06883 -0.05800 0.01970
480.70000 1.05560 0.04883 -0.00680
480.80000 1.07873 0.18938 0.01659
480.90000 1.12911 -0.03400 -0.06334
481.00000 0.99976 -0.20112 0.00757
481.10000 1.12084 -0.03427 0.04604
481.20000 1.05634 -0.04032 0.02036
481.30000 1.09983 -0.06207 0.01130
481.40000 1.08688 -0.10827 -0.00248
481.50000 1.02913 -0.03399 -0.03570
481.60000 1.10666 0.07061 -0.03249
481.70000 1.12332 0.21409 0.01215
481.80000 1.07042 0.20274 0.08516
481.90000 1.07257 0.22879 -0.05115
482.00000 1.01239 0.18534 -0.01098
482.10000 1.11922 0.08395 0.03524
482.20000 1.09418 -0.14247 -0.01315
482.30000 1.05538 -0.25163 -0.03627
482.40000 1.05863 -0.17105 0.01113
482.50000 1.10620 -0.10532 -0.00951
482.60000 1.09555 -0.06757 -0.02800
482.70000 1.05525 0.00825 -0.02711
482.80000 1.06754 0.05554 0.00434
482.90000 1.04237 0.08833 -0.00557
483.00000 1.08337 -0.00242 -0.01823
483.10000 1.08407 -0.12875 -0.03247
483.20000 1.08885 -0.16892 0.07633
483.30000 1.04591 -0.10128 -0.01256
483.40000 1.07930 0.14851 -0.01455
483.50000 1.10088 0.37840 0.01300
483.60000 1.05935 0.27502 -0.02475
483.70000 1.08112 0.17384 0.04462
483.80000 1.03145 -0.01029 0.01022
483.90000 1.14462 0.02788 -0.03332
484.00000 0.96516 -0.05729 0.00683
484.10000 1.08084 -0.10821 0.02351
484.20000 1.10132 -0.27661 -0.00526
484.30000 1.04390 -0.33041 -0.03265
484.40000 1.08560 -0.13477 -0.04349
484.50000 1.07254 0.07684 0.00573
484.60000 1.02683 0.02124 0.04108
484.70000 1.12596 -0.06654 0.02210
484.80000 1.06581 0.01041 -0.03636
484.90000 1.05241 0.07615 0.08442
485.00000 1.05258 0.09277 -0.04084
485.10000 1.06062 0.18311 -0.02245
485.20000 1.08106 0.08929 0.03418
485.30000 1.11691 -0.11205 0.08348
485.40000 1.08304 -0.02849 -0.09504
485.50000 1.00139 -0.12515 -0.02076
485.60000 1.14574 -0.14013 0.05345
485.70000 1.05015 -0.07487 0.04607
485.80000 1.01259 -0.03798 -0.05601
485.90000 1.14741 -0.03274 0.05379
486.00000 1.03829 0.00776 -0.00302
486.10000 1.15661 -0.02494 -0.09800
486.20000 1.01387 0.00795 0.06516
486.30000 1.08101 0.03580 0.02322
486.40000 1.07190 0.09354 0.00840
486.50000 1.10159 0.22637 -0.00597
486.60000 1.05652 0.25041 0.05571
486.70000 1.07579 0.17683 -0.02242
486.80000 1.12317 0.16176 -0.01300
486.90000 0.99196 0.09540 -0.02377
487.00000 1.03262 -0.00091 0.02728
487.10000 1.13273 0.03141 -0.01694
487.20000 0.98696 -0.02019 -0.03149
487.30000 1.06599 -0.05257 0.01085
487.40000 1.13519 -0.34663 -0.01871
487.50000 1.02036 -0.37595 -0.04938
487.60000 1.05882 -0.06959 0.00829
487.70000 1.13336 0.15574 0.03152
487.80000 1.06826 0.17353 -0.02443
487.90000 1.05052 0.12924 0.00104
488.00000 1.10582 -0.11390 -0.05281
488.10000 1.03726 -0.21640 0.03567
488.20000 1.01020 -0.16143 0.05567
488.30000 1.09890 -0.05104 -0.00427
488.40000 1.06806 0.05432 -0.07379
488.50000 1.04260 -0.07401 0.10222
488.60000 1.10699 -0.15729 0.00428
488.70000 1.01842 -0.11424 -0.06597
488.80000 1.10808 -0.05058 -0.01479
488.90000 1.10733 -0.09521 0.12176
489.00000 0.95598 -0.14728 -0.04883
489.10000 1.15678 -0.05915 -0.10574
489.20000 1.02698 0.07656 0.03691
489.30000 1.12242 0.15604 0.01083
489.40000 1.07918 0.24249 -0.04160
489.50000 1.11078 0.26439 0.04255
489.60000 1.06032 0.22469 -0.03339
489.70000 1.03443 0.20787 -0.04798
489.80000 1.15626 0.27516 0.04931
489.90000 1.04412 0.20173 -0.01962
490.00000 1.08006 0.07643 -0.05387
490.10000 1.07134 -0.01877 0.00039
490.20000 1.07758 -0.08303 -0.02595
490.30000 1.06072 -0.05085 -0.00190
490.40000 1.09951 -0.05958 0.00208
490.50000 1.12739 -0.00693 0.00885
490.60000 1.01570 -0.00519 -0.00115
490.70000 1.10228 0.00145 0.01442
490.80000 1.01925 -0.08941 -0.04225
490.90000 1.06379 -0.22664 0.00812
491.00000 1.06365 -0.17189 0.04378
491.10000 1.05964 -0.07775 -0.01473
491.20000 1.10646 0.06636 0.05708
491.30000 1.02570 0.08115 -0.03379
491.40000 1.05140 0.05576 -0.03089
491.50000 1.06554 -0.15431 0.04088
491.60000 1.07699 -0.17491 -0.03850
491.70000 1.13325 -0.05792 0.04308
491.80000 1.02574 0.23529 0.01827
491.90000 1.10435 0.09323 -0.02576
492.00000 1.08721 -0.14376 -0.00119
492.10000 1.05949 -0.11184 0.00384
492.20000 1.06257 -0.11610 -0.04917
492.30000 1.06746 -0.13110 -0.00307
492.40000 1.07683 -0.18897 0.06519
492.50000 0.99199 -0.25220 0.04420
492.60000 1.10155 -0.09954 -0.06363
492.70000 1.05185 -0.07526 -0.01478
492.80000 1.09495 0.01602 0.05041
492.90000 1.08422 -0.01888 -0.04602
493.00000 1.03221 0.07074 -0.04446
493.10000 1.10384 0.27289 0.04085
493.20000 1.08958 0.25511 -0.03389
493.30000 1.01047 0.08912 0.03178
493.40000 1.12776 -0.11783 0.04756
493.50000 0.99839 -0.14235 -0.04826
493.60000 1.07667 -0.00332 -0.05035
493.70000 1.07813 0.09459 0.05322
493.80000 1.03026 0.06481 0.01064
493.90000 1.05522 -0.03026 -0.08782
494.00000 1.07631 -0.06621 0.01168
494.10000 1.08033 -0.19100 0.06366
494.20000 1.05501 -0.20360 -0.00980
494.30000 0.99985 -0.13990 0.08539
494.40000 1.10887 0.01186 0.02582
494.50000 1.01125 0.19754 -0.01370
494.60000 1.08271 0.05730 0.06983
494.70000 1.04873 -0.02807 -0.04780
494.80000 1.07798 0.17248 -0.02139
494.90000 1.05571 0.01647 -0.00227
495.00000 1.08299 -0.02377 0.00792
495.10000 1.03771 -0.02057 -0.02097
495.20000 1.11184 0.05967 0.00073
495.30000 1.05976 0.08925 -0.03690
495.40000 1.11436 0.05438 0.04609
495.50000 1.02438 0.07902 -0.05336
495.60000 1.03499 0.12290 -0.03238
495.70000 1.07750 -0.01266 0.07644
495.80000 0.95905 -0.02285 -0.02003
495.90000 1.06660 0.08262 -0.09668
496.00000 1.10744 -0.03870 0.08850
496.10000 1.04060 -0.30237 -0.03709
496.20000 1.10607 -0.11431 -0.02330
496.30000 1.02937 -0.01644 -0.00271
496.40000 1.11210 -0.08477 0.02475
496.50000 1.05477 -0.13791 -0.02057
496.60000 1.02856 -0.24346 -0.06121
496.70000 1.17452 -0.18090 0.07698
496.80000 1.07283 -0.18000 0.04856
496.90000 1.09368 -0.01867 -0.07365
497.00000 1.09198 0.11259 0.00250
497.10000 1.05380 0.16910 -0.00973
497.20000 1.05925 0.24053 0.03371
497.30000 1.08579 0.14347 0.00151
497.40000 1.06713 -0.02840 0.01305
497.50000 1.01914 -0.06483 0.02185
497.60000 1.04539 -0.04378 -0.02406
497.70000 1.15558 0.10634 0.02216
497.80000 1.00244 0.21449 0.07306
497.90000 1.12998 0.23776 -0.01201
498.00000 1.06167 0.06914 -0.02652
498.10000 1.09939 -0.00518 0.03604
498.20000 1.06901 -0.05467 0.02679
498.30000 1.06756 0.07894 -0.01997
498.40000 1.06011 0.27914 -0.03943
498.50000 1.04312 0.20465 0.02088
498.60000 1.09724 -0.08886 -0.01519
498.70000 1.02151 -0.11592 0.01755
498.80000 1.02636 -0.07888 0.00485
498.90000 1.07494 -0.00191 -0.04425
499.00000 1.10678 -0.13204 -0.01156
499.10000 1.01451 -0.19215 0.04944
499.20000 1.06667 -0.08682 -0.04307
499.30000 1.09198 -0.19866 -0.01696
499.40000 1.07361 -0.18233 0.09328
499.50000 1.02747 -0.14037 -0.01728
499.60000 1.11640 -0.04326 0.01574
499.70000 1.04887 0.20303 -0.02120
499.80000 1.04622 0.23627 -0.01051
499.90000 1.05533 0.06281 0.02627
500.00000 1.08823 0.01624 -0.00671
