# t[ps]  x[nm]  y[nm]  z[nm]
0.00000 0.04090 -0.00697 0.00492
0.10000 1.34458 -0.11271 -0.01289
0.20000 0.85932 -0.09945 0.06514
0.30000 0.97672 -0.12797 -0.04653
0.40000 0.97330 -0.14055 0.00260
0.50000 0.99779 -0.16845 -0.02218
0.60000 1.02145 0.05922 -0.02615
0.70000 0.98223 -0.00362 0.05568
0.80000 1.01220 -0.33301 -0.01096
0.90000 1.04199 -0.31173 -0.02631
1.00000 0.97277 0.04767 -0.00101
1.10000 1.05561 0.21548 0.01370
1.20000 0.97164 0.14478 -0.03377
1.30000 1.09368 -0.01286 0.03026
1.40000 0.99665 -0.14156 -0.02641
1.50000 0.98285 -0.26872 -0.04683
1.60000 0.99207 -0.08555 0.02144
1.70000 1.02001 -0.01606 0.03166
1.80000 1.01814 -0.07205 -0.00806
1.90000 0.97676 -0.13213 0.03743
2.00000 0.97023 -0.05968 0.03270
2.10000 1.01060 0.20390 -0.08324
2.20000 0.91533 0.18990 0.02305
2.30000 1.07361 -0.05021 0.03468
2.40000 1.01506 -0.10904 0.00746
2.50000 0.96112 -0.04709 0.00274
2.60000 1.07488 -0.10178 0.02108
2.70000 0.89239 -0.10361 0.00504
2.80000 1.08092 0.06125 -0.01621
2.90000 1.01052 0.00561 0.07618
3.00000 1.01729 -0.20366 -0.04052
3.10000 0.97144 -0.14438 -0.04574
3.20000 1.03260 -0.01893 -0.02578
3.30000 0.99173 -0.01701 0.04070
3.40000 1.05463 -0.03619 -0.00321
3.50000 1.03621 0.01420 -0.02157
3.60000 1.00095 0.01857 0.04767
3.70000 1.03202 -0.04085 -0.00090
3.80000 0.99565 -0.25713 -0.01521
3.90000 0.96767 -0.23027 -0.03762
4.00000 1.07393 -0.12635 0.02872
4.10000 0.95726 0.09817 -0.01457
4.20000 1.01642 0.29881 -0.02357
4.30000 0.95925 0.25482 -0.04505
4.40000 1.05071 0.00608 0.10007
4.50000 0.96811 -0.17446 0.02029
4.60000 1.04135 -0.05540 -0.05014
4.70000 0.95312 0.07016 -0.00619
4.80000 1.02181 0.11746 -0.03415
4.90000 1.00978 -0.10662 -0.04421
5.00000 1.00087 -0.02151 -0.02262
5.10000 0.95967 -0.05679 0.02297
5.20000 1.03079 0.06222 0.02169
5.30000 0.97024 0.06097 -0.02856
5.40000 1.05239 0.10976 -0.01325
5.50000 0.91778 0.02445 -0.01727
5.60000 1.10456 -0.04674 -0.00406
5.70000 0.92977 -0.05483 -0.06946
5.80000 0.99050 -0.09742 -0.03994
5.90000 0.99047 -0.12918 0.03911
6.00000 0.96434 -0.01808 0.04041
6.10000 1.04369 0.00856 -0.01078
6.20000 0.99998 -0.06506 0.00988
6.30000 0.92608 0.05934 -0.03429
6.40000 1.02222 0.07454 -0.01783
6.50000 0.94812 0.13953 0.00363
6.60000 1.05097 0.08707 0.03322
6.70000 1.01675 0.18106 -0.02017
6.80000 0.96963 0.42478 -0.11607
6.90000 1.08569 0.16556 0.00764
7.00000 0.96751 0.05358 0.04556
7.10000 0.95441 -0.00503 -0.01364
7.20000 1.00321 -0.05194 0.02562
7.30000 0.98865 -0.08560 -0.03484
7.40000 0.98793 -0.05417 0.02177
7.50000 1.02299 0.00044 0.02831
7.60000 1.00504 -0.00683 -0.00805
7.70000 0.96611 0.07294 0.04764
7.80000 1.00819 -0.13393 -0.06478
7.90000 1.04651 -0.01398 0.01323
8.00000 0.97784 0.02493 0.11023
8.10000 1.04260 -0.22125 -0.01071
8.20000 0.96296 -0.23359 -0.05690
8.30000 1.05512 -0.02274 0.05580
8.40000 0.94407 0.29944 -0.01247
8.50000 1.03874 0.29699 -0.03053
8.60000 1.00888 -0.05831 0.05882
8.70000 0.95445 -0.24481 0.03969
8.80000 0.97166 -0.19294 -0.08025
8.90000 1.05369 -0.22568 0.01578
9.00000 1.03294 -0.22651 0.01582
9.10000 0.95581 -0.14675 -0.04287
9.20000 1.03260 0.11643 0.00845
9.30000 0.97591 0.16387 -0.05436
9.40000 0.99385 0.21171 0.00676
9.50000 1.02789 0.16212 0.03330
9.60000 0.98363 -0.04757 0.03308
9.70000 0.97648 -0.10431 0.02838
9.80000 0.98911 -0.19354 -0.05559
9.90000 1.03648 -0.20681 0.02469
10.00000 0.94051 0.09362 0.01909
10.10000 0.99324 0.27369 -0.06164
10.20000 1.01608 0.11989 -0.02344
10.30000 0.95264 -0.03981 0.05994
10.40000 1.06621 -0.09766 0.03465
10.50000 0.97244 -0.11845 -0.06850
10.60000 1.04529 -0.22224 0.02564
10.70000 0.93058 -0.37196 -0.00772
10.80000 1.03921 -0.26938 -0.05586
10.90000 0.98028 -0.01702 0.01113
11.00000 1.00983 0.18649 0.02845
11.10000 0.96169 0.12361 -0.01333
11.20000 1.05415 0.00101 0.02421
11.30000 1.01860 0.06325 -0.04716
11.40000 0.96843 0.13096 -0.00446
11.50000 1.01455 0.10587 -0.01901
11.60000 0.98033 0.02541 -0.00953
11.70000 1.00823 -0.15307 0.02026
11.80000 0.98928 -0.28166 -0.04801
11.90000 1.02553 -0.27509 -0.04301
12.00000 0.97622 -0.28410 0.01463
12.10000 1.06634 -0.29493 -0.00293
12.20000 0.94508 -0.10517 -0.02954
12.30000 0.97273 0.05291 0.01296
12.40000 0.98276 -0.08186 0.08389
12.50000 1.00823 -0.27844 0.02242
12.60000 0.99849 -0.10232 -0.03376
12.70000 0.99767 0.13587 -0.04562
12.80000 0.99830 0.20703 -0.00082
12.90000 0.91770 -0.10530 0.03699
13.00000 1.05010 -0.01059 -0.01890
13.10000 0.99616 0.07191 0.00574
13.20000 1.02345 0.14227 -0.04189
13.30000 0.96629 0.16631 -0.03192
13.40000 1.07847 -0.00114 0.04023
13.50000 0.98933 -0.03046 -0.03731
13.60000 0.98123 0.05685 0.00048
13.70000 1.03371 0.06305 0.03234
13.80000 0.97634 0.15566 -0.02667
13.90000 1.05013 0.07755 -0.01504
14.00000 0.96885 -0.03258 -0.01136
14.10000 1.03968 0.05245 0.01623
14.20000 1.03006 -0.03974 0.05725
14.30000 0.88477 -0.12360 0.01233
14.40000 1.09412 0.11435 -0.04717
14.50000 0.98103 0.05724 -0.01296
14.60000 0.95799 -0.11865 -0.02350
14.70000 1.04499 -0.14069 -0.04640
14.80000 1.03056 0.00685 -0.01384
14.90000 1.05073 0.12227 0.03560
15.00000 0.89575 0.32395 -0.00518
15.10000 1.06416 0.23175 -0.01167
15.20000 0.93657 0.20854 0.00655
15.30000 1.00881 0.09482 -0.00287
15.40000 1.03918 -0.02057 0.02892
15.50000 1.03103 -0.02816 -0.05914
15.60000 0.94380 0.10581 -0.00785
15.70000 1.04882 0.24298 0.07844
15.80000 0.97334 0.30339 -0.02554
15.90000 0.97464 0.22422 0.01563
16.00000 0.93754 0.11394 0.01645
16.10000 0.99709 -0.08103 -0.01183
16.20000 1.02126 -0.18828 0.00428
16.30000 0.99050 -0.11371 0.03193
16.40000 1.04064 0.02439 -0.02584
16.50000 0.97176 0.17602 0.03394
16.60000 0.96001 0.26494 -0.02171
16.70000 1.04578 0.17308 -0.02417
16.80000 1.01666 0.03036 -0.00319
16.90000 0.95972 -0.14435 0.00798
17.00000 0.99796 -0.19352 -0.00082
17.10000 1.04965 -0.05106 0.01207
17.20000 0.91289 0.05057 -0.00404
17.30000 1.05213 -0.16306 0.02479
17.40000 0.94913 -0.16897 -0.06415
17.50000 0.97968 -0.12549 0.05018
17.60000 0.98672 -0.13423 -0.01491
17.70000 0.97543 -0.01952 0.00128
17.80000 1.00177 0.23820 0.02787
17.90000 1.03463 0.18118 0.00244
18.00000 0.99206 0.19864 0.02348
18.10000 0.98125 0.17799 0.00584
18.20000 1.01150 -0.03276 -0.03697
18.30000 1.01095 -0.00588 -0.01870
18.40000 0.95563 -0.00861 -0.01949
18.50000 1.00630 0.15845 0.03388
18.60000 0.94115 0.14731 0.04839
18.70000 1.00219 0.14632 -0.03201
18.80000 1.03263 -0.09075 -0.00657
18.90000 0.96854 -0.30153 0.03361
19.00000 1.00879 -0.28879 -0.05614
19.10000 1.02583 0.09735 -0.03938
19.20000 0.96643 0.18637 0.01367
19.30000 0.98939 0.04607 -0.01994
19.40000 1.00566 -0.03565 0.02314
19.50000 1.02945 -0.08279 -0.04030
19.60000 0.92120 -0.16780 -0.01018
19.70000 1.07081 -0.14062 0.00818
19.80000 0.94271 -0.03260 0.02369
19.90000 1.05760 0.09198 -0.05514
20.00000 0.96933 0.12764 -0.01902
20.10000 1.08752 0.00024 0.09243
20.20000 0.96896 -0.13616 -0.08719
20.30000 1.00412 -0.09495 -0.00005
20.40000 0.96470 0.00160 0.01166
20.50000 1.01462 -0.07641 -0.06384
20.60000 1.00155 -0.22483 -0.01941
20.70000 0.99653 -0.17792 -0.02007
20.80000 1.01414 0.06358 0.01431
20.90000 0.94450 0.08658 -0.04609
21.00000 0.99338 0.12025 0.02070
21.10000 1.09533 0.11326 0.05432
21.20000 0.92258 0.16672 -0.00047
21.30000 0.97844 0.15212 -0.01522
21.40000 1.06139 0.07807 0.04941
21.50000 0.94899 0.07996 -0.05405
21.60000 1.00066 0.13766 -0.08440
21.70000 0.99022 -0.15170 -0.01261
21.80000 1.00673 -0.29532 -0.02464
21.90000 1.00904 -0.25263 0.04816
22.00000 0.99132 -0.25946 0.02315
22.10000 1.02810 -0.17275 -0.01003
22.20000 0.85404 -0.12378 -0.05030
22.30000 1.06623 0.01632 0.00672
22.40000 0.91221 0.07064 0.01139
22.50000 1.02265 0.00869 -0.04349
22.60000 1.04032 -0.12368 -0.01417
22.70000 0.95113 -0.16567 -0.00701
22.80000 0.97791 -0.11888 0.02403
22.90000 1.03530 -0.00680 0.02321
23.00000 1.03010 0.03039 0.00235
23.10000 0.98647 0.21594 -0.03789
23.20000 0.91372 0.09399 0.01548
23.30000 1.00412 -0.05314 0.00277
23.40000 1.00423 -0.08162 -0.03321
23.50000 1.05763 -0.08408 0.01764
23.60000 0.99607 0.16948 0.01202
23.70000 0.99930 0.10149 -0.02651
23.80000 0.98874 0.09081 -0.02304
23.90000 0.96362 0.04544 0.00892
24.00000 1.01411 -0.19340 0.02264
24.10000 0.94527 -0.30408 0.01444
24.20000 1.06686 -0.24235 0.04825
24.30000 0.98821 -0.22363 -0.00178
24.40000 1.00721 -0.11452 -0.04326
24.50000 1.03385 -0.06302 0.06372
24.60000 0.95720 -0.09691 0.00957
24.70000 1.02128 -0.19485 0.01060
24.80000 0.98045 -0.49807 -0.05921
24.90000 1.01473 -0.42955 0.03395
25.00000 1.04836 -0.07890 -0.02568
25.10000 0.94578 -0.09714 0.01420
25.20000 1.07917 -0.05490 -0.04472
25.30000 0.96473 0.16291 -0.05305
25.40000 1.01103 0.24921 0.05226
25.50000 1.01341 0.25996 -0.01000
25.60000 0.96831 0.18595 -0.02028
25.70000 1.01715 -0.01199 0.04936
25.80000 0.99375 -0.11863 -0.03142
25.90000 1.01497 -0.23168 0.04597
26.00000 0.98005 -0.06845 0.03716
26.10000 1.04626 0.15552 -0.02222
26.20000 1.01711 0.34994 -0.00084
26.30000 1.01112 0.33398 -0.06489
26.40000 1.06607 0.09214 0.02090
26.50000 0.96133 0.03809 0.02788
26.60000 0.97297 0.02069 -0.01921
26.70000 1.06717 -0.06233 -0.00685
26.80000 0.96964 -0.07447 0.00222
26.90000 0.97354 0.23713 -0.03100
27.00000 1.04081 0.52236 0.03350
27.10000 0.99289 0.44911 -0.03242
27.20000 0.93482 0.34337 0.01364
27.30000 0.99904 0.27295 -0.03457
27.40000 1.02515 0.20087 0.00840
27.50000 1.02643 0.00920 -0.02854
27.60000 0.96413 -0.04484 -0.04123
27.70000 1.03572 -0.08472 0.13581
27.80000 1.02260 0.05410 -0.01229
27.90000 1.00251 0.09407 -0.02862
28.00000 1.00234 -0.10387 0.02417
28.10000 0.98969 -0.15357 -0.00311
28.20000 1.00874 -0.02884 -0.03234
28.30000 1.00696 0.07038 0.01132
28.40000 0.99722 0.08040 -0.00530
28.50000 0.94347 -0.06477 -0.02250
28.60000 1.06056 -0.07389 0.02199
28.70000 1.04448 0.03699 0.01547
28.80000 1.01582 0.11582 -0.06098
28.90000 1.05101 0.11528 0.02178
29.00000 0.99894 -0.01755 0.05936
29.10000 0.96118 -0.18766 -0.05628
29.20000 1.00868 -0.24351 -0.05275
29.30000 0.93269 -0.26166 0.05219
29.40000 1.00367 -0.09589 0.04875
29.50000 1.01579 0.08092 -0.00054
29.60000 1.01511 0.10657 -0.00641
29.70000 0.99250 0.21066 -0.03311
29.80000 0.98617 0.16704 -0.00124
29.90000 1.06620 0.21732 0.07000
30.00000 0.97472 0.04837 0.02585
30.10000 0.93504 -0.07547 0.00820
30.20000 1.04501 0.03935 -0.04316
30.30000 0.91131 0.27402 0.02325
30.40000 1.04552 0.29908 0.02963
30.50000 0.97906 0.21634 -0.02621
30.60000 1.02176 0.21454 -0.05951
30.70000 0.97596 0.20288 0.02815
30.80000 1.02671 0.08816 -0.03289
30.90000 1.03743 -0.03970 0.00666
31.00000 0.96446 0.04461 0.04234
31.10000 0.99140 0.07913 -0.09476
31.20000 0.96031 -0.16810 0.00622
31.30000 1.05164 -0.17662 0.06375
31.40000 0.97046 -0.09842 0.01888
31.50000 0.93447 0.12192 -0.02030
31.60000 1.06079 0.15207 0.03685
31.70000 0.97030 0.04055 0.01870
31.80000 1.00690 -0.00601 0.00774
31.90000 1.04140 -0.03871 -0.07079
32.00000 0.92045 -0.09412 0.00330
32.10000 1.01751 0.21654 -0.00441
32.20000 1.07485 0.37909 -0.03844
32.30000 0.89055 0.27690 -0.00463
32.40000 1.07151 0.16004 0.02824
32.50000 1.00258 0.03772 -0.02654
32.60000 0.95837 -0.08648 -0.01498
32.70000 1.05260 -0.04019 0.02048
32.80000 0.95565 -0.13607 -0.05873
32.90000 0.94887 -0.14692 0.05257
33.00000 1.06308 -0.07344 0.01248
33.10000 0.87478 0.06819 -0.09590
33.20000 1.12883 0.14233 0.02206
33.30000 0.99673 0.13772 0.06085
33.40000 0.95399 0.15378 0.04286
33.50000 1.01605 0.10070 -0.02279
33.60000 1.02008 0.20338 -0.07914
33.70000 0.93071 0.05750 -0.02776
33.80000 1.02918 -0.04718 -0.01836
33.90000 0.96477 -0.12757 0.04786
34.00000 1.01571 -0.00619 0.02592
34.10000 0.98448 -0.09884 -0.01794
34.20000 0.93568 -0.11625 -0.02004
34.30000 1.03417 0.07000 -0.04196
34.40000 1.03004 0.23110 0.07924
34.50000 1.01156 0.33819 0.01352
34.60000 0.90574 0.37040 -0.04621
34.70000 1.07776 0.31204 -0.00849
34.80000 0.97821 0.06984 -0.01179
34.90000 0.93227 -0.11699 -0.00240
35.00000 1.13160 -0.06283 0.03589
35.10000 0.94751 -0.09774 0.03098
35.20000 0.99376 -0.11456 -0.08320
35.30000 1.01048 -0.11291 0.02812
35.40000 0.98537 -0.14821 -0.03662
35.50000 0.96742 -0.25922 0.06817
35.60000 1.01751 -0.44152 0.00878
35.70000 1.00842 -0.34794 -0.02259
35.80000 0.97045 0.08686 0.00069
35.90000 1.05940 0.17611 0.00435
36.00000 0.98619 0.15612 0.03470
36.10000 0.96260 0.10338 -0.01027
36.20000 1.01323 0.06185 -0.01637
36.30000 0.98517 -0.12734 0.04217
36.40000 1.01674 -0.09350 -0.05202
36.50000 0.92065 -0.12442 0.01916
36.60000 1.02218 -0.04817 0.04479
36.70000 0.98825 0.08618 0.03044
36.80000 1.00017 0.03583 -0.01283
36.90000 1.02511 -0.02948 -0.01506
37.00000 1.01517 -0.11450 0.02746
37.10000 1.05223 -0.16796 0.06569
37.20000 1.00321 -0.10123 -0.00783
37.30000 0.95947 -0.12303 -0.05279
37.40000 1.06940 -0.08219 0.11627
37.50000 0.88299 0.15366 -0.03305
37.60000 1.03998 0.19818 -0.00440
37.70000 1.02698 0.14103 -0.00325
37.80000 0.98312 -0.04295 0.06624
37.90000 1.02746 -0.04015 0.01712
38.00000 1.04530 0.03977 -0.03943
38.10000 1.03467 0.07463 0.01166
38.20000 0.95116 -0.25735 -0.08883
38.30000 0.96763 -0.11219 0.03297
38.40000 1.06035 0.00255 0.04788
38.50000 0.99300 0.20069 -0.02226
38.60000 0.99513 0.28881 -0.01099
38.70000 0.99874 0.20988 -0.01879
38.80000 1.02516 -0.01139 -0.01601
38.90000 1.04892 -0.08913 -0.00915
39.00000 0.96009 -0.00301 0.02845
39.10000 1.06516 0.04702 0.01278
39.20000 0.95702 -0.07747 -0.01798
39.30000 0.99413 0.06721 0.00176
39.40000 0.95946 -0.02660 0.02492
39.50000 1.04688 0.00943 -0.02129
39.60000 1.01837 -0.20479 0.00308
39.70000 0.93847 -0.10921 0.02750
39.80000 1.02155 0.12136 -0.07670
39.90000 0.98762 0.30373 -0.03332
40.00000 1.00954 0.18583 0.04255
40.10000 1.08691 0.11513 -0.05394
40.20000 0.95145 0.19475 -0.04468
40.30000 1.04114 0.10909 0.00513
40.40000 1.00528 -0.16142 0.02298
40.50000 0.98666 -0.09420 -0.05332
40.60000 0.97614 0.17646 -0.01861
40.70000 1.03315 0.10654 0.01302
40.80000 0.94339 -0.05622 -0.00073
40.90000 1.07349 -0.12602 0.03539
41.00000 0.96593 -0.07789 0.02428
41.10000 1.04679 0.22935 -0.07943
41.20000 1.00643 0.28525 0.02782
41.30000 1.01381 0.16127 0.00720
41.40000 0.97974 0.01937 -0.01165
41.50000 0.98185 -0.08115 0.00486
41.60000 1.01191 0.05898 0.06428
41.70000 0.95529 0.10681 -0.03821
41.80000 0.99804 0.21873 0.00983
41.90000 1.03508 0.39331 0.02145
42.00000 1.02555 0.27038 -0.01399
42.10000 1.01466 -0.03230 -0.00008
42.20000 0.96039 -0.17274 0.03322
42.30000 1.06299 -0.24780 -0.03289
42.40000 0.96343 -0.14456 0.05209
42.50000 0.98848 0.04504 -0.02774
42.60000 1.03034 -0.00605 -0.00623
42.70000 0.95894 -0.20803 0.08229
42.80000 1.03218 -0.08452 0.01314
42.90000 1.00219 -0.04883 -0.04306
43.00000 1.04395 0.05067 -0.03385
43.10000 0.94107 -0.15597 0.06955
43.20000 0.98341 -0.39501 -0.02752
43.30000 1.02150 -0.21709 0.01032
43.40000 1.02018 0.07824 -0.02764
43.50000 0.97374 0.06902 -0.07862
43.60000 1.07612 0.00755 0.02818
43.70000 0.90820 -0.13833 -0.01086
43.80000 1.05301 -0.20801 -0.05699
43.90000 0.95410 -0.14406 0.00113
44.00000 0.99092 0.03874 -0.01991
44.10000 1.01089 0.08663 0.01570
44.20000 0.95863 0.25461 0.01747
44.30000 1.05369 0.06289 0.00497
44.40000 0.94018 -0.11546 -0.03486
44.50000 0.95374 -0.11349 0.03395
44.60000 1.00929 0.03233 -0.01621
44.70000 1.01540 -0.02956 -0.01660
44.80000 0.94428 -0.05259 0.04485
44.90000 1.03702 -0.10705 -0.01286
45.00000 0.97313 -0.07287 -0.04017
45.10000 1.06027 -0.03018 -0.00686
45.20000 0.98686 -0.11493 0.07134
45.30000 0.86330 -0.00099 0.01825
45.40000 1.12761 -0.14066 -0.05537
45.50000 0.92596 -0.20807 0.03709
45.60000 0.95773 -0.05077 0.05186
45.70000 1.09080 -0.03604 0.00398
45.80000 0.95471 -0.06731 -0.01657
45.90000 1.01504 -0.00315 0.01161
46.00000 0.92679 0.01343 -0.00415
46.10000 1.02366 0.13849 -0.00806
46.20000 0.94286 0.05432 0.01662
46.30000 1.03055 0.00255 0.01592
46.40000 1.01285 0.10803 0.01012
46.50000 0.97807 0.18385 0.00632
46.60000 1.06436 0.25510 0.01007
46.70000 0.96371 0.33116 -0.00320
46.80000 0.92141 0.18404 -0.02346
46.90000 1.05172 -0.14352 0.00707
47.00000 0.91498 -0.33442 0.01089
47.10000 1.02169 -0.37787 -0.05055
47.20000 0.95481 -0.38171 0.04008
47.30000 1.04131 -0.37494 0.01641
47.40000 0.95894 -0.18936 -0.02982
47.50000 0.97707 -0.00820 -0.07749
47.60000 1.06261 0.15566 -0.00574
47.70000 0.96223 0.17759 0.06478
47.80000 1.00715 0.18766 0.00161
47.90000 0.99580 0.05720 -0.01625
48.00000 0.94357 -0.04464 0.06086
48.10000 1.02886 0.06485 -0.00822
48.20000 0.95239 0.01215 0.00344
48.30000 0.99674 0.04565 0.01500
48.40000 1.00724 0.19932 0.01006
48.50000 0.96918 0.17406 -0.00826
48.60000 0.94654 -0.00949 -0.02551
48.70000 1.04139 -0.10456 0.03683
48.80000 1.00487 -0.19341 0.03691
48.90000 0.99966 -0.09678 -0.01400
49.00000 0.97329 -0.06387 -0.00480
49.10000 0.97929 0.02979 0.05565
49.20000 1.06667 -0.13606 -0.02881
49.30000 0.96276 -0.04140 -0.01334
49.40000 1.01702 0.05632 0.03043
49.50000 1.03449 0.03851 -0.00166
49.60000 0.95913 0.11467 0.02412
49.70000 1.06045 0.07493 0.02054
49.80000 0.97930 0.00079 -0.04965
49.90000 0.96501 -0.36333 0.06246
50.00000 1.06888 -0.31975 -0.02826
50.10000 0.95699 -0.11962 0.00895
50.20000 1.04359 0.00522 0.00098
50.30000 0.97444 0.04963 -0.02000
50.40000 1.02908 0.11054 0.02635
50.50000 1.03568 -0.00844 0.01766
50.60000 1.01435 -0.06805 0.02345
50.70000 1.03016 -0.11354 -0.03509
50.80000 0.94880 -0.12156 0.02140
50.90000 1.08060 -0.11052 0.03587
51.00000 0.88429 0.01338 -0.01402
51.10000 1.08345 0.08513 -0.04047
51.20000 0.97342 0.13240 0.10740
51.30000 1.03656 0.04585 -0.01546
51.40000 0.96054 -0.23642 -0.06157
51.50000 0.96221 -0.21158 -0.03496
51.60000 1.02570 -0.12369 0.00876
51.70000 0.94486 0.12606 -0.02071
51.80000 0.94489 0.14371 0.02165
51.90000 1.01174 0.01472 0.05083
52.00000 1.02277 0.01588 0.04852
52.10000 0.97110 0.29192 -0.02479
52.20000 0.99557 0.24883 0.02117
52.30000 1.01332 -0.07483 0.03946
52.40000 0.96228 -0.32062 0.00692
52.50000 0.97920 -0.27396 -0.01076
52.60000 1.02692 -0.08039 -0.03331
52.70000 1.03681 -0.14798 0.00341
52.80000 0.94464 -0.17715 -0.00702
52.90000 1.05706 -0.11532 0.01039
53.00000 0.90743 -0.15628 -0.01869
53.10000 1.06972 0.03758 -0.02659
53.20000 0.94787 0.16044 0.05601
53.30000 0.99648 0.10521 0.03184
53.40000 0.98930 -0.01638 -0.01914
53.50000 1.07148 0.05366 0.00116
53.60000 0.94315 0.07608 0.00697
53.70000 0.96197 -0.04467 -0.04407
53.80000 0.94551 -0.08487 -0.05552
53.90000 1.04021 -0.06254 0.07944
54.00000 1.02344 -0.08894 -0.00188
54.10000 0.97068 -0.18222 -0.00216
54.20000 1.02469 -0.18732 -0.01637
54.30000 0.98859 -0.27673 0.04518
54.40000 0.99181 -0.07869 -0.01786
54.50000 0.99945 0.05674 -0.00901
54.60000 1.01619 -0.00885 0.03158
54.70000 0.95170 -0.02942 0.04194
54.80000 1.06500 -0.07603 -0.02450
54.90000 0.91416 -0.07041 -0.04458
55.00000 1.04216 -0.24773 0.04362
55.10000 0.98642 -0.31893 0.02408
55.20000 0.95591 0.13306 -0.05319
55.30000 1.01976 0.27958 0.02136
55.40000 1.01564 0.09036 0.01099
55.50000 1.03965 -0.14867 -0.00930
55.60000 0.91493 -0.31617 -0.01170
55.70000 1.01200 -0.29784 0.04181
55.80000 0.95102 -0.24573 0.06167
55.90000 0.98413 -0.17560 -0.02685
56.00000 1.04483 -0.18236 0.02342
56.10000 0.94588 -0.01183 0.03114
56.20000 0.99215 0.10064 -0.02057
56.30000 1.07776 0.14935 0.00699
56.40000 0.95014 -0.03291 0.01046
56.50000 1.05922 -0.07562 0.01588
56.60000 1.03850 -0.02157 -0.03590
56.70000 0.98130 -0.03095 0.01757
56.80000 1.03152 0.12665 -0.04888
56.90000 0.95259 0.03658 0.05694
57.00000 0.97104 -0.24709 0.02764
57.10000 1.02108 -0.00545 -0.03838
57.20000 0.95924 0.11285 0.02369
57.30000 1.03664 -0.01349 0.00572
57.40000 0.99180 -0.20216 0.00558
57.50000 0.94686 -0.30578 -0.03801
57.60000 0.97171 -0.25917 -0.03121
57.70000 1.04938 -0.10641 0.04868
57.80000 0.98895 -0.13669 -0.00065
57.90000 0.92926 -0.21524 -0.02473
58.00000 1.06044 -0.19789 0.00152
58.10000 0.94460 -0.15685 -0.01354
58.20000 1.02866 -0.01357 0.00009
58.30000 0.93465 0.05130 0.00922
58.40000 0.98190 0.14039 -0.02114
58.50000 1.07043 -0.01741 0.01737
58.60000 0.95161 -0.24922 0.00332
58.70000 0.99485 -0.10707 -0.04359
58.80000 0.95322 0.00695 0.03187
58.90000 0.96747 0.10004 0.00901
59.00000 1.11083 0.07182 0.00614
59.10000 0.97968 -0.21007 -0.03513
59.20000 0.97897 -0.22933 -0.03649
59.30000 1.00029 -0.10073 0.01702
59.40000 1.01044 0.10912 0.02820
59.50000 0.93299 0.09059 -0.04211
59.60000 1.04233 -0.08835 0.07729
59.70000 1.02651 0.05164 -0.00700
59.80000 0.96341 0.20398 -0.05076
59.90000 1.05308 0.16654 0.04284
60.00000 0.97322 -0.03251 -0.00652
60.10000 0.97769 -0.13458 -0.02837
60.20000 1.01394 -0.20597 0.02834
60.30000 0.99270 -0.17230 -0.09087
60.40000 0.98618 0.05997 -0.02216
60.50000 1.06374 0.10639 0.05104
60.60000 0.97808 -0.08512 -0.04509
60.70000 1.02621 -0.09168 0.00687
60.80000 1.00085 -0.05880 0.00654
60.90000 0.98947 -0.24075 0.00187
61.00000 0.97434 -0.28022 -0.02419
61.10000 0.99735 -0.13937 0.01304
61.20000 0.96407 -0.15225 0.02045
61.30000 1.00937 -0.14747 -0.02773
61.40000 0.99111 0.03837 -0.04611
61.50000 1.02782 0.17378 0.01533
61.60000 0.97235 0.37643 0.04369
61.70000 0.96863 0.23272 -0.03217
61.80000 1.08606 -0.10748 -0.00158
61.90000 0.96016 -0.08002 -0.00084
62.00000 1.02559 0.07986 -0.00104
62.10000 0.98418 0.22308 0.00199
62.20000 1.00413 0.14631 0.01547
62.30000 1.00185 0.11062 -0.01698
62.40000 0.97429 0.12336 0.00996
62.50000 1.02057 0.13099 -0.03773
62.60000 0.99822 0.21063 0.00013
62.70000 0.98979 0.45231 0.00897
62.80000 0.97945 0.27466 0.05955
62.90000 1.00554 0.02875 -0.00841
63.00000 0.98864 -0.16580 -0.01355
63.10000 1.03312 -0.14597 0.04052
63.20000 0.99687 0.03869 0.01910
63.30000 0.98893 0.12281 -0.00644
63.40000 0.97621 0.14938 -0.03732
63.50000 1.02312 0.12070 0.01164
63.60000 1.00621 -0.06302 -0.01720
63.70000 0.97286 0.03410 -0.00013
63.80000 1.01904 0.08071 0.02023
63.90000 0.95781 0.09797 0.01292
64.00000 1.08632 0.03375 -0.02013
64.10000 0.97991 0.03503 -0.02968
64.20000 1.03831 -0.13683 -0.02359
64.30000 0.96057 -0.29208 0.02620
64.40000 0.99836 -0.26765 -0.05763
64.50000 1.06907 -0.02936 0.03062
64.60000 0.97077 0.26196 0.02440
64.70000 1.04224 0.25848 0.01741
64.80000 0.98146 0.10402 -0.00882
64.90000 0.94024 -0.01868 0.00630
65.00000 1.01607 0.11172 -0.01306
65.10000 0.96639 0.05925 0.04249
65.20000 1.03587 0.07444 -0.00459
65.30000 0.96532 0.02212 -0.05601
65.40000 1.03250 0.14844 -0.01470
65.50000 0.93063 0.29552 -0.02364
65.60000 1.03853 0.22550 0.00955
65.70000 0.89901 0.13456 -0.01254
65.80000 1.04377 0.23080 0.04870
65.90000 1.02037 0.32989 -0.08175
66.00000 0.99385 0.17947 0.00804
66.10000 0.99573 -0.04528 0.03137
66.20000 1.00277 -0.25186 -0.06716
66.30000 1.00141 -0.29249 0.04072
66.40000 1.00399 -0.25271 0.06307
66.50000 0.95175 -0.11236 -0.04174
66.60000 1.03162 0.20262 0.01441
66.70000 0.97814 0.16715 0.01787
66.80000 0.96660 0.30199 0.01794
66.90000 1.03170 0.28257 0.04448
67.00000 0.95214 0.33338 0.00067
67.10000 1.05694 0.27476 -0.00154
67.20000 0.94759 0.16416 0.02631
67.30000 0.92460 0.08775 -0.01803
67.40000 1.06046 -0.09352 0.00997
67.50000 0.92088 -0.12854 0.05320
67.60000 1.08928 -0.00718 -0.04087
67.70000 0.92308 -0.04720 0.00070
67.80000 1.00214 -0.20401 0.02969
67.90000 1.00398 -0.13636 -0.00744
68.00000 0.96651 -0.02745 -0.01815
68.10000 1.11542 0.07347 0.04650
68.20000 0.85092 -0.00997 -0.04933
68.30000 1.01703 -0.18172 -0.02616
68.40000 1.05474 -0.29261 0.06623
68.50000 0.94241 -0.19436 -0.06922
68.60000 0.96746 0.02082 -0.01760
68.70000 1.05159 0.10141 0.10677
68.80000 0.93793 0.12197 -0.02035
68.90000 1.05812 -0.14049 -0.01510
69.00000 0.93923 -0.39289 -0.01281
69.10000 1.04547 -0.24895 -0.00716
69.20000 1.00093 -0.03595 -0.01483
69.30000 1.02845 0.10472 0.02852
69.40000 0.96795 0.02523 0.00424
69.50000 0.98825 0.06815 -0.03161
69.60000 1.03335 0.04680 0.01559
69.70000 0.94097 0.02158 0.07006
69.80000 1.09493 0.08899 -0.05377
69.90000 0.95487 0.07149 0.00662
70.00000 0.99401 0.10474 0.09796
70.10000 0.99965 0.13970 -0.00323
70.20000 1.05096 0.10567 -0.04275
70.30000 0.94503 0.17621 -0.03468
70.40000 1.06369 0.36435 -0.05024
70.50000 0.93758 0.29013 0.05759
70.60000 0.99654 0.15662 -0.02127
70.70000 1.03094 0.02394 -0.01864
70.80000 0.99143 -0.11464 0.01083
70.90000 1.02874 -0.07682 0.01797
71.00000 1.00408 -0.20116 -0.05698
71.10000 1.01209 -0.23542 -0.01038
71.20000 0.93875 -0.29166 0.01265
71.30000 1.02523 -0.04811 0.00399
71.40000 0.99603 0.06772 0.02481
71.50000 0.97559 0.17556 -0.04619
71.60000 1.06469 0.34123 0.02936
71.70000 1.01361 0.29523 0.05423
71.80000 0.93233 0.00722 0.00374
71.90000 0.97826 -0.11349 0.00988
72.00000 1.04878 -0.06163 -0.00523
72.10000 0.94497 -0.01936 0.08036
72.20000 0.99359 0.07611 0.03225
72.30000 1.07612 0.12030 -0.06484
72.40000 0.98707 -0.03458 -0.05645
72.50000 1.01188 -0.03667 0.06978
72.60000 1.00677 0.06348 0.00757
72.70000 1.00292 -0.07268 0.02028
72.80000 1.01688 -0.14375 -0.02918
72.90000 0.99416 -0.08400 0.06553
73.00000 0.99429 0.01890 -0.04694
73.10000 1.03742 0.17106 -0.06196
73.20000 1.00062 -0.00272 0.05141
73.30000 0.94001 -0.10717 -0.01025
73.40000 1.03783 -0.14677 -0.02680
73.50000 0.96943 -0.24606 -0.01413
73.60000 0.96970 -0.14141 0.03457
73.70000 1.04249 0.09370 -0.01895
73.80000 1.03981 0.11826 -0.03070
73.90000 0.94368 -0.03888 0.02880
74.00000 1.00279 -0.20180 0.03307
74.10000 0.99985 -0.22507 -0.02686
74.20000 1.01143 -0.09571 -0.00643
74.30000 1.03800 -0.01529 -0.03709
74.40000 0.98690 -0.02557 0.05769
74.50000 1.00894 0.10123 -0.00066
74.60000 0.91290 0.13641 -0.01927
74.70000 1.07237 -0.12521 0.12349
74.80000 0.92599 -0.11443 -0.03714
74.90000 1.05132 -0.00580 -0.09709
75.00000 0.94417 -0.03978 0.09817
75.10000 1.02011 0.03044 -0.06039
75.20000 1.00062 0.01450 -0.07910
75.30000 0.96778 -0.03587 0.02873
75.40000 0.97986 -0.02593 0.02637
75.50000 0.97464 -0.04846 -0.03482
75.60000 1.02534 -0.06234 0.03624
75.70000 0.96005 0.03143 -0.06613
75.80000 0.98310 0.00676 0.00001
75.90000 0.99784 0.12418 -0.01271
76.00000 1.04352 0.12932 0.02569
76.10000 1.00172 0.14311 0.00092
76.20000 0.95255 0.19926 -0.06302
76.30000 1.00701 0.05030 0.03094
76.40000 1.00010 -0.02297 -0.01408
76.50000 0.99069 -0.23017 -0.00813
76.60000 0.97815 -0.16883 0.01713
76.70000 1.02236 0.15567 -0.05753
76.80000 0.98852 0.35542 0.02621
76.90000 1.07912 0.26367 0.01290
77.00000 0.97914 -0.04187 0.00461
77.10000 0.98655 -0.05070 -0.02250
77.20000 1.05507 -0.04057 -0.00054
77.30000 0.99220 -0.08890 0.02209
77.40000 0.99551 -0.14640 -0.03501
77.50000 1.01705 -0.15028 -0.02325
77.60000 1.01791 -0.12410 0.02501
77.70000 1.00206 0.00956 -0.03010
77.80000 0.91209 0.24726 0.03266
77.90000 1.02203 0.32553 0.00597
78.00000 1.02258 0.19925 -0.05040
78.10000 0.98755 -0.06866 -0.01700
78.20000 1.01756 -0.25967 0.00248
78.30000 1.02004 -0.20160 -0.05012
78.40000 0.98863 0.00684 0.03230
78.50000 1.01898 0.08712 0.00530
78.60000 0.92580 0.02232 -0.00941
78.70000 1.05124 -0.11753 0.05566
78.80000 0.92960 -0.19552 0.07915
78.90000 1.01373 -0.14062 -0.00983
79.00000 1.03563 0.02455 -0.03468
79.10000 1.01843 0.14508 0.01299
79.20000 0.98779 0.12683 0.05047
79.30000 1.06676 0.28658 -0.02892
79.40000 0.91994 0.18157 -0.03581
79.50000 1.03235 -0.07300 0.05128
79.60000 0.90656 -0.04546 -0.00304
79.70000 1.05615 -0.03541 -0.08046
79.80000 0.93904 0.04617 0.04343
79.90000 0.99954 0.03157 0.04087
80.00000 1.01601 0.01971 0.00430
80.10000 1.00458 0.01793 -0.05813
80.20000 1.01106 0.05483 0.01095
80.30000 1.01534 0.02184 0.00838
80.40000 0.99819 0.06475 -0.02464
80.50000 1.01172 -0.06906 -0.04518
80.60000 0.93026 -0.16030 0.10670
80.70000 0.98495 -0.18366 -0.04320
80.80000 1.01399 -0.11669 -0.04302
80.90000 1.01541 0.02665 0.05421
81.00000 1.00366 0.07872 -0.02472
81.10000 1.00314 0.05413 -0.03265
81.20000 1.00389 -0.00822 0.01347
81.30000 1.04075 -0.08657 0.01251
81.40000 0.98656 -0.02911 -0.03157
81.50000 1.02167 0.14280 0.00531
81.60000 0.91976 0.03400 0.00722
81.70000 1.01682 -0.19242 0.04904
81.80000 0.99427 -0.22631 -0.05333
81.90000 1.00731 -0.14946 0.00350
82.00000 0.94910 0.10508 -0.05106
82.10000 0.98948 0.12990 -0.00770
82.20000 0.98306 0.19979 0.02938
82.30000 1.01338 0.12246 -0.04115
82.40000 1.01500 0.01253 0.02700
82.50000 0.92801 -0.02141 0.01449
82.60000 1.06117 -0.01004 0.01472
82.70000 0.91464 0.12991 -0.07176
82.80000 1.04620 0.21121 -0.00372
82.90000 1.02828 -0.02830 0.08845
83.00000 0.92444 -0.27382 -0.00802
83.10000 1.04366 -0.32327 -0.09009
83.20000 1.00023 -0.08740 0.04842
83.30000 0.93188 0.07541 0.09164
83.40000 1.08104 0.14617 -0.00181
83.50000 0.92144 0.03704 0.01038
83.60000 1.01389 -0.01374 -0.01067
83.70000 1.03686 0.00131 -0.02525
83.80000 0.99537 0.01720 0.04020
83.90000 1.00050 -0.13232 -0.00120
84.00000 0.99496 -0.19898 -0.02230
84.10000 1.01545 -0.09681 0.03950
84.20000 0.99801 0.11329 -0.03273
84.30000 0.98321 0.02145 -0.02646
84.40000 0.98849 -0.20722 -0.04607
84.50000 1.01452 -0.30600 0.04596
84.60000 0.99951 -0.20791 -0.03597
84.70000 0.94575 0.07559 -0.07533
84.80000 1.04440 0.09863 0.04109
84.90000 0.98527 -0.01019 -0.02229
85.00000 0.98094 -0.05182 -0.02202
85.10000 1.04524 -0.05412 0.01048
85.20000 1.02681 -0.07849 0.04394
85.30000 1.02556 -0.00995 -0.02255
85.40000 1.02162 0.11080 0.01061
85.50000 0.97840 0.25071 0.00690
85.60000 1.01050 0.29319 -0.00862
85.70000 1.00003 0.16275 0.02464
85.80000 0.99201 0.11692 0.01872
85.90000 1.05372 0.11611 -0.03855
86.00000 1.01202 0.21985 -0.00322
86.10000 1.01070 0.16669 0.04625
86.20000 0.98288 0.11585 -0.02184
86.30000 1.05235 0.03922 0.00864
86.40000 0.86895 -0.03993 0.01521
86.50000 1.06296 0.00605 -0.05561
86.60000 0.95613 0.18968 0.02457
86.70000 0.98677 0.08270 -0.03365
86.80000 0.97913 0.03162 -0.00423
86.90000 1.07194 -0.18457 0.04898
87.00000 0.96266 0.03554 -0.06880
87.10000 0.98387 0.10675 -0.00939
87.20000 0.98594 0.13365 -0.01106
87.30000 1.02526 0.08046 0.06241
87.40000 0.96763 0.11072 -0.02951
87.50000 0.99846 0.19712 -0.02818
87.60000 1.03467 0.18345 0.00811
87.70000 0.96668 0.07066 0.02260
87.80000 0.97669 -0.26428 -0.04312
87.90000 0.97364 -0.43199 0.04635
88.00000 1.00514 -0.22812 -0.03752
88.10000 1.02969 0.05504 0.01959
88.20000 0.98783 0.12207 0.03867
88.30000 1.07926 0.00547 -0.02233
88.40000 0.93783 -0.03522 -0.05594
88.50000 1.01378 0.02433 -0.01155
88.60000 1.00553 0.12678 0.05225
88.70000 1.08805 0.13525 -0.06604
88.80000 0.94282 0.14733 -0.00211
88.90000 0.97885 0.10663 0.02371
89.00000 1.06274 -0.26571 -0.02318
89.10000 0.95450 -0.48053 0.05600
89.20000 1.03293 -0.32162 -0.02608
89.30000 1.00007 -0.22323 -0.05539
89.40000 1.02797 0.06412 0.04762
89.50000 1.00976 0.27534 0.01903
89.60000 1.00829 0.15449 0.01701
89.70000 0.99634 0.05026 -0.02304
89.80000 0.97151 0.07178 0.01149
89.90000 1.02418 0.01516 -0.03520
90.00000 1.01963 -0.01105 0.04042
90.10000 0.96557 -0.00127 -0.04876
90.20000 0.99062 -0.08059 -0.05837
90.30000 1.06918 -0.03339 0.03879
90.40000 0.95332 0.08306 0.01001
90.50000 1.06138 0.01074 -0.07459
90.60000 0.99465 -0.01652 -0.00555
90.70000 0.94371 -0.17424 0.03775
90.80000 1.06289 -0.00648 -0.01784
90.90000 0.94486 0.07785 -0.00087
91.00000 0.97951 0.24315 0.01289
91.10000 1.02917 0.01631 -0.03754
91.20000 1.00992 -0.06653 0.04122
91.30000 0.98412 -0.00696 -0.00873
91.40000 1.04449 0.05503 -0.01850
91.50000 1.02131 0.03360 0.03368
91.60000 0.92020 -0.11460 0.02414
91.70000 1.01078 -0.15372 -0.05556
91.80000 1.05360 -0.07492 0.02227
91.90000 0.91270 -0.16503 0.09742
92.00000 1.06887 -0.15483 -0.07996
92.10000 0.99328 -0.03384 0.00135
92.20000 0.97456 -0.01626 0.04924
92.30000 0.98870 -0.12230 -0.04090
92.40000 0.95017 0.00232 0.01172
92.50000 0.96017 0.07639 0.00917
92.60000 0.99263 0.13361 0.05691
92.70000 0.94729 0.00953 -0.05191
92.80000 1.04146 -0.15556 -0.04469
92.90000 0.94559 -0.26328 0.03364
93.00000 0.97055 -0.08276 0.05409
93.10000 1.01733 -0.03443 -0.04466
93.20000 1.03033 -0.06077 0.00173
93.30000 1.01039 -0.25375 0.05074
93.40000 1.01641 -0.22784 0.03441
93.50000 1.01691 -0.08570 -0.01847
93.60000 1.03922 -0.06876 -0.01329
93.70000 0.95127 0.00528 -0.04235
93.80000 1.03758 -0.07623 0.01431
93.90000 0.97854 -0.04294 0.02724
94.00000 1.01773 -0.02594 -0.04282
94.10000 1.02723 0.04850 0.03417
94.20000 0.98020 0.18239 0.02374
94.30000 0.98785 0.10089 -0.02871
94.40000 0.96968 -0.08020 0.00551
94.50000 1.00406 0.00110 0.02262
94.60000 1.03045 0.05020 0.02196
94.70000 0.96372 0.06867 -0.05761
94.80000 0.96686 0.25664 0.00008
94.90000 1.08120 0.28867 0.01937
95.00000 0.98302 -0.17391 0.00130
95.10000 0.92240 -0.31828 0.00772
95.20000 1.09753 -0.13203 -0.06022
95.30000 0.97879 0.21613 -0.01481
95.40000 1.01371 0.25453 -0.00397
95.50000 0.99985 0.02507 0.00236
95.60000 0.96842 -0.19825 -0.01763
95.70000 0.97023 -0.17525 -0.00266
95.80000 1.00785 -0.05454 0.07631
95.90000 0.99251 0.05106 -0.00755
96.00000 0.93965 0.17620 -0.09021
96.10000 1.09582 0.19666 0.06299
96.20000 0.98355 0.04947 0.00013
96.30000 1.02058 -0.03393 -0.00104
96.40000 0.94888 -0.11490 0.00401
96.50000 1.02521 0.02547 -0.02780
96.60000 0.98020 -0.08307 0.03415
96.70000 1.03572 -0.10895 -0.01131
96.80000 1.01128 0.01842 -0.04525
96.90000 0.99922 0.11695 0.01663
97.00000 0.98588 0.11522 -0.00531
97.10000 0.96972 0.03506 -0.00555
97.20000 1.02380 0.06564 0.03205
97.30000 1.01230 0.01298 0.05473
97.40000 0.96690 -0.02611 0.00386
97.50000 0.98541 -0.01392 -0.07888
97.60000 1.01928 0.14312 0.08456
97.70000 0.94441 0.03673 0.03353
97.80000 1.06976 -0.16806 -0.05210
97.90000 0.95363 -0.44744 0.02902
98.00000 1.00122 -0.26325 0.03566
98.10000 1.03175 -0.27375 0.02033
98.20000 0.98989 0.01271 -0.05362
98.30000 1.00429 0.02077 -0.06472
98.40000 1.06969 -0.00225 0.06957
98.50000 0.99969 0.05545 -0.05762
98.60000 0.96470 0.01113 -0.02241
98.70000 1.02299 -0.14234 0.06650
98.80000 0.96904 -0.23489 0.03230
98.90000 1.02896 -0.38626 -0.08380
99.00000 0.98801 -0.08059 -0.01627
99.10000 0.97940 0.22485 0.01542
99.20000 1.02498 0.20770 0.04219
99.30000 1.01781 0.11464 0.02553
99.40000 0.98000 0.06342 0.02051
99.50000 0.95530 0.07262 0.00282
99.60000 1.10731 -0.13307 -0.03350
99.70000 0.91231 -0.32966 0.04079
99.80000 0.98270 -0.31203 -0.03651
99.90000 1.05312 -0.06552 0.04034
100.00000 0.97398 -0.14457 0.00002
100.10000 1.01789 -0.33917 0.02214
100.20000 1.01658 -0.31399 -0.06270
100.30000 0.93583 -0.12343 0.04350
100.40000 1.04530 0.06651 0.04698
100.50000 0.94991 0.06386 -0.02700
100.60000 1.04937 0.00960 0.00794
100.70000 1.00461 0.04010 0.00017
100.80000 1.01993 -0.15805 -0.02476
100.90000 0.99413 -0.13847 -0.01980
101.00000 1.06093 -0.12697 0.00429
101.10000 0.96959 -0.03781 0.06530
101.20000 1.03077 -0.06027 0.01617
101.30000 0.96985 -0.12546 0.02960
101.40000 1.00685 -0.33441 -0.02939
101.50000 1.00668 -0.14799 -0.00908
101.60000 0.98202 0.03219 0.01288
101.70000 1.06515 0.05103 0.01631
101.80000 0.94924 -0.05321 -0.02493
101.90000 0.97038 -0.06306 0.06824
102.00000 1.04888 0.00727 -0.00896
102.10000 0.96024 -0.13868 0.01137
102.20000 1.04496 -0.20025 0.03601
102.30000 1.00150 -0.16254 -0.03708
102.40000 1.01246 0.14634 0.02222
102.50000 1.00191 0.13013 0.03947
102.60000 1.02955 0.05542 0.02109
102.70000 0.97860 -0.03590 -0.01966
102.80000 0.99945 -0.16236 -0.04991
102.90000 1.05615 -0.06426 0.06852
103.00000 1.02042 0.09749 -0.05856
103.10000 1.02089 0.13120 0.04049
103.20000 1.01574 0.19378 -0.02619
103.30000 1.00888 0.12881 -0.05403
103.40000 1.01901 0.10867 -0.00393
103.50000 1.01871 0.06831 -0.00012
103.60000 0.98178 0.05028 0.01034
103.70000 1.00047 0.20582 0.03221
103.80000 1.01077 0.27266 -0.06856
103.90000 1.04200 0.03372 -0.01695
104.00000 1.00587 -0.17773 0.03121
104.10000 1.03588 -0.17812 0.06219
104.20000 1.03428 -0.05618 -0.01831
104.30000 0.99049 -0.04401 0.03723
104.40000 1.00440 -0.13309 0.01038
104.50000 1.04181 -0.04942 0.01998
104.60000 0.99528 0.17594 0.04364
104.70000 1.00035 0.21692 0.00856
104.80000 1.01808 0.12718 -0.03286
104.90000 0.98214 0.11573 -0.02356
105.00000 0.95588 -0.00499 -0.00055
105.10000 1.03645 -0.14456 -0.00521
105.20000 0.92990 -0.05186 0.00895
105.30000 1.05899 -0.12472 -0.01646
105.40000 0.97417 -0.20506 0.03722
105.50000 0.97062 -0.16549 -0.03294
105.60000 1.09124 -0.07013 0.02564
105.70000 0.92717 0.02895 -0.00597
105.80000 1.08816 -0.02376 0.04534
105.90000 0.99452 -0.13399 -0.03885
106.00000 0.94003 -0.05113 -0.03309
106.10000 0.96488 0.17786 0.07982
106.20000 0.99719 0.29934 -0.03691
106.30000 0.94839 0.04717 0.01454
106.40000 1.03580 -0.04265 0.03614
106.50000 0.97284 0.04488 0.02403
106.60000 1.00323 0.11656 -0.07345
106.70000 0.96550 0.21427 0.02841
106.80000 1.04475 -0.04303 -0.00913
106.90000 0.95907 -0.09919 -0.03116
107.00000 1.00881 0.13336 0.01054
107.10000 0.99202 0.10578 0.01617
107.20000 1.00860 -0.14071 0.01857
107.30000 0.99789 -0.21839 -0.01386
107.40000 1.01939 -0.04696 0.00114
107.50000 0.93245 0.05415 -0.00630
107.60000 1.03948 -0.10918 0.04542
107.70000 0.93991 -0.06979 -0.04043
107.80000 1.03889 -0.06847 -0.03769
107.90000 0.96142 -0.09444 0.10916
108.00000 1.00647 -0.14654 0.03924
108.10000 1.03089 -0.06684 -0.04685
108.20000 0.96270 -0.13118 -0.03169
108.30000 1.02249 -0.11515 -0.00762
108.40000 0.97486 0.19598 0.05602
108.50000 0.99444 0.00258 0.03553
108.60000 0.94404 -0.11343 -0.01040
108.70000 1.04473 0.01610 0.04438
108.80000 0.96385 -0.06412 -0.03556
108.90000 1.08095 -0.12596 -0.00827
109.00000 0.99753 0.02824 0.01307
109.10000 0.98029 0.19269 -0.02060
109.20000 1.00343 0.16920 0.04994
109.30000 0.99855 0.00020 0.02119
109.40000 1.01193 -0.06674 -0.01922
109.50000 0.95908 -0.19282 0.03270
109.60000 1.07022 -0.25407 0.02176
109.70000 0.97185 -0.25020 -0.00144
109.80000 0.97412 -0.10734 -0.02577
109.90000 1.07183 0.14703 -0.05695
110.00000 0.96150 0.22173 0.06234
110.10000 0.97580 0.02235 0.06091
110.20000 1.00810 -0.18126 -0.04606
110.30000 0.98388 -0.08069 0.05243
110.40000 1.06348 -0.05245 -0.02703
110.50000 0.94881 0.08638 -0.02407
110.60000 1.03905 0.14539 0.03870
110.70000 1.02123 0.14905 0.00616
110.80000 0.94728 0.19940 -0.00370
110.90000 1.04612 0.17775 -0.02013
111.00000 0.92460 0.19554 0.00053
111.10000 1.04655 0.15990 0.02212
111.20000 0.96986 0.08143 0.00337
111.30000 0.96767 0.19371 0.00353
111.40000 1.02503 0.27448 0.00886
111.50000 0.98517 0.22795 0.00421
111.60000 1.03578 0.18525 -0.00957
111.70000 0.92488 0.01046 -0.01601
111.80000 1.03218 0.13498 0.01115
111.90000 0.93446 0.14338 0.01865
112.00000 0.98415 0.12110 -0.02983
112.10000 1.03161 0.10405 0.01239
112.20000 0.94864 -0.07459 0.01637
112.30000 0.99147 -0.19065 -0.02462
112.40000 1.01754 0.00413 -0.00845
112.50000 0.99124 0.30124 -0.01969
112.60000 1.00313 0.24351 0.00395
112.70000 0.99354 0.01595 -0.00604
112.80000 0.99484 -0.30536 -0.03599
112.90000 0.99269 -0.30123 0.03299
113.00000 1.00795 -0.02015 -0.00541
113.10000 0.99022 0.20096 -0.03429
113.20000 1.00553 0.19005 0.00482
113.30000 0.97251 0.36864 0.00242
113.40000 1.00510 0.31338 0.01135
113.50000 1.05572 0.33393 0.00686
113.60000 0.94536 0.16083 0.05482
113.70000 1.02720 0.13520 0.00509
113.80000 1.02627 -0.06240 -0.05601
113.90000 0.99592 -0.17552 0.03789
114.00000 0.95947 -0.34062 0.01958
114.10000 0.98444 -0.32559 -0.03352
114.20000 1.02892 -0.15116 -0.01612
114.30000 1.02102 -0.02438 0.03134
114.40000 0.96872 -0.01672 -0.01467
114.50000 1.07995 -0.09298 -0.00896
114.60000 1.01682 0.03871 0.00233
114.70000 0.94224 0.10189 0.04464
114.80000 1.09012 0.02770 -0.02905
114.90000 1.01671 -0.14458 0.01532
115.00000 0.96410 -0.24098 -0.03928
115.10000 1.04762 -0.13641 -0.03660
115.20000 0.95245 0.09656 0.05954
115.30000 0.98375 0.04489 -0.02776
115.40000 0.99542 -0.09336 -0.02425
115.50000 0.97736 -0.03549 0.00991
115.60000 0.99853 -0.08013 -0.01944
115.70000 0.94724 -0.08248 -0.01844
115.80000 1.02295 -0.04839 -0.05334
115.90000 0.99325 0.09064 -0.00757
116.00000 0.93101 0.04781 -0.00545
116.10000 1.01684 -0.08353 -0.01398
116.20000 1.03357 -0.03583 -0.02994
116.30000 0.89038 0.09413 -0.01250
116.40000 1.13988 -0.02286 0.00837
116.50000 0.88535 0.02574 0.04787
116.60000 1.05222 0.07895 -0.03061
116.70000 1.00190 0.10757 0.01544
116.80000 1.06832 0.22981 0.03817
116.90000 0.99279 0.22181 0.03119
117.00000 1.02682 0.05909 -0.05742
117.10000 1.03926 0.02665 0.05690
117.20000 0.95981 -0.02244 0.00845
117.30000 1.03333 -0.22221 0.00521
117.40000 0.96116 -0.29219 0.00267
117.50000 1.01707 -0.12343 -0.00443
117.60000 1.03868 0.10126 -0.01095
117.70000 1.01228 0.24277 0.05075
117.80000 0.99331 0.07173 0.01201
117.90000 1.00834 -0.00317 -0.02487
118.00000 0.99902 -0.12719 0.01036
118.10000 1.02351 -0.12891 -0.05851
118.20000 1.04517 0.08293 -0.01246
118.30000 0.95474 0.18908 -0.05149
118.40000 0.99813 0.23616 -0.03748
118.50000 1.00651 0.07468 0.04675
118.60000 1.05129 0.11990 -0.03659
118.70000 0.95174 0.05036 0.03030
118.80000 1.02053 0.06710 -0.00638
118.90000 1.04200 0.05767 0.03766
119.00000 0.95579 -0.08329 0.05051
119.10000 1.01250 0.14160 -0.00251
119.20000 1.02516 0.12894 -0.02425
119.30000 1.04305 -0.03407 -0.00308
119.40000 0.93794 -0.13613 0.04003
119.50000 1.02879 -0.24968 -0.04295
119.60000 0.99612 -0.08023 0.00325
119.70000 0.97736 0.02633 0.00413
119.80000 0.94419 0.04935 -0.02273
119.90000 0.99443 -0.17830 -0.07278
120.00000 1.00166 -0.26263 -0.04446
120.10000 1.00025 -0.20064 0.07051
120.20000 1.05981 0.01906 -0.03603
120.30000 0.95200 -0.00916 -0.03041
120.40000 1.00594 -0.13161 -0.06826
120.50000 1.01810 -0.08029 0.01469
120.60000 0.98193 -0.02474 0.02758
120.70000 1.06945 0.08804 -0.00078
120.80000 0.99230 0.11276 -0.00381
120.90000 0.97453 0.13153 -0.04626
121.00000 1.00899 0.08177 0.03939
121.10000 1.03066 0.04752 0.01412
121.20000 0.96912 0.22946 -0.00156
121.30000 1.03135 0.22113 -0.03973
121.40000 0.94948 0.13493 0.02583
121.50000 1.02259 0.20086 -0.00435
121.60000 1.00065 0.03676 -0.04829
121.70000 0.95104 -0.03655 -0.02075
121.80000 1.02381 -0.00008 -0.00237
121.90000 0.99832 -0.13549 0.05770
122.00000 1.01232 -0.11755 0.00240
122.10000 0.98737 -0.19313 0.01568
122.20000 0.97823 -0.21861 -0.02907
122.30000 0.96424 -0.18173 0.02658
122.40000 0.97571 0.07550 -0.02030
122.50000 1.03353 0.33050 0.01388
122.60000 0.91780 0.23524 0.03178
122.70000 1.08882 0.15257 -0.02086
122.80000 0.96860 0.09161 0.02335
122.90000 1.01366 -0.04012 -0.05310
123.00000 0.97359 -0.14082 -0.00819
123.10000 0.98651 -0.14930 0.00701
123.20000 0.94206 0.03254 -0.04126
123.30000 1.06002 0.14424 0.01191
123.40000 0.91802 0.26028 -0.00573
123.50000 0.99262 0.13562 0.03287
123.60000 1.01407 0.38664 -0.06205
123.70000 1.01627 0.32609 -0.01373
123.80000 0.93945 0.02500 0.04157
123.90000 1.01330 -0.07468 -0.00355
124.00000 0.92575 -0.13771 0.02887
124.10000 1.08987 -0.21582 0.04793
124.20000 0.87368 0.05195 -0.04548
124.30000 1.04806 0.08225 -0.03002
124.40000 1.05185 0.08364 -0.01068
124.50000 0.99375 0.15908 -0.00020
124.60000 1.02239 -0.12753 0.03389
124.70000 0.97097 -0.14602 -0.00869
124.80000 0.94082 -0.07044 0.05791
124.90000 1.04098 0.04074 -0.02853
125.00000 1.01562 0.16529 0.05571
125.10000 0.89247 0.00597 -0.06302
125.20000 1.07594 -0.05413 0.00809
125.30000 0.99400 -0.07812 0.02786
125.40000 0.97989 0.00568 -0.01689
125.50000 1.00078 0.12172 0.00104
125.60000 1.00707 0.39158 0.01015
125.70000 1.01439 0.45101 -0.01826
125.80000 0.93248 0.26392 0.02456
125.90000 1.01696 0.14105 -0.01138
126.00000 1.07835 0.15341 0.03106
126.10000 1.01152 -0.06713 0.01358
126.20000 0.93541 -0.27611 -0.01745
126.30000 1.12433 -0.23841 0.00894
126.40000 0.88601 -0.20947 -0.03567
126.50000 1.05926 -0.14190 0.01548
126.60000 0.95108 -0.16666 -0.02566
126.70000 1.06150 -0.16804 0.06168
126.80000 0.98092 -0.03592 -0.01139
126.90000 0.97640 -0.00766 -0.04405
127.00000 1.00625 -0.01597 0.00655
127.10000 1.00914 0.06752 0.01145
127.20000 0.98664 0.10209 -0.00893
127.30000 1.05948 -0.00876 -0.00944
127.40000 0.90539 -0.16287 -0.00504
127.50000 1.08499 -0.14408 0.08053
127.60000 0.97010 -0.22302 -0.05954
127.70000 0.98222 -0.18459 -0.01427
127.80000 1.02055 0.08413 -0.01349
127.90000 0.99996 0.12423 -0.01396
128.00000 0.95912 -0.01707 0.03911
128.10000 1.01348 -0.16065 -0.01789
128.20000 0.97954 -0.27192 0.03000
128.30000 1.00586 -0.28519 -0.03059
128.40000 0.96497 -0.05571 0.02481
128.50000 1.02456 0.23174 0.00109
128.60000 1.03934 0.20166 0.00744
128.70000 0.96840 0.04802 -0.01534
128.80000 1.05481 -0.06340 0.01707
128.90000 1.00571 0.03392 -0.01273
129.00000 0.92864 0.05997 0.04174
129.10000 1.00351 -0.06792 0.01044
129.20000 1.01934 -0.08222 -0.05260
129.30000 0.94320 -0.04727 -0.02852
129.40000 0.99623 0.03077 0.00170
129.50000 1.02599 0.06870 0.08319
129.60000 1.00884 0.04460 -0.06759
129.70000 1.02859 0.01637 0.02688
129.80000 0.96707 -0.00092 -0.00361
129.90000 0.94309 -0.09405 0.00598
130.00000 1.09494 -0.17766 0.00383
130.10000 1.00074 -0.20508 0.01295
130.20000 1.00969 -0.00756 0.05401
130.30000 1.00692 -0.03806 -0.01731
130.40000 0.99101 -0.26941 -0.01813
130.50000 1.00767 -0.36151 0.03573
130.60000 0.97547 -0.12008 0.01539
130.70000 0.98340 -0.00654 -0.00276
130.80000 1.04306 0.16553 -0.03565
130.90000 0.94053 0.17345 -0.01951
131.00000 1.08423 -0.05060 0.03227
131.10000 1.00610 -0.19578 0.06271
131.20000 1.00925 -0.15694 -0.01764
131.30000 0.99343 -0.12571 -0.01129
131.40000 0.98027 -0.01267 0.02449
131.50000 0.99982 -0.05253 -0.03802
131.60000 0.99985 -0.08192 0.00675
131.70000 0.98228 0.03035 0.02012
131.80000 1.05301 0.18139 0.02206
131.90000 0.97874 0.21029 0.03991
132.00000 1.03872 -0.02433 0.01372
132.10000 0.95478 -0.29516 0.01054
132.20000 1.04002 -0.12846 0.02107
132.30000 0.97596 0.02418 0.00218
132.40000 0.95220 0.07755 -0.01021
132.50000 1.01580 -0.07242 -0.02892
132.60000 0.98007 -0.19146 0.03111
132.70000 0.99999 -0.25306 -0.01123
132.80000 1.02830 -0.30262 0.01186
132.90000 1.09212 -0.15775 -0.01282
133.00000 0.91112 -0.04728 0.02104
133.10000 1.07070 0.05991 -0.04138
133.20000 0.87863 0.04426 0.04858
133.30000 1.02633 -0.04045 -0.00204
133.40000 0.97187 -0.15986 0.00826
133.50000 0.97120 -0.26930 -0.03037
133.60000 0.99187 -0.13775 0.01242
133.70000 1.08111 0.09331 -0.02829
133.80000 0.96914 0.26296 0.00281
133.90000 0.97567 0.22022 0.04352
134.00000 0.98502 0.04937 0.01215
134.10000 0.97854 -0.29069 0.02120
134.20000 1.03625 -0.20847 -0.02602
134.30000 0.97365 -0.05703 -0.09699
134.40000 1.03271 -0.02310 -0.02779
134.50000 0.93728 -0.07700 0.00604
134.60000 1.05284 -0.03209 0.01561
134.70000 0.99483 -0.05551 -0.01128
134.80000 0.99337 -0.17551 0.04363
134.90000 1.08112 -0.14464 -0.04191
135.00000 0.97643 -0.05192 -0.02253
135.10000 1.04548 0.14361 0.01180
135.20000 0.99565 0.27377 -0.04272
135.30000 0.93021 0.02893 0.01304
135.40000 1.05141 -0.04440 -0.04524
135.50000 0.98057 0.10124 0.01686
135.60000 0.94813 0.14615 0.01726
135.70000 1.04567 0.20682 -0.07310
135.80000 1.00329 0.21671 -0.02895
135.90000 0.99318 0.20668 0.06437
136.00000 1.02952 -0.03251 -0.03186
136.10000 0.95628 -0.08523 -0.09883
136.20000 1.03503 -0.25365 0.02445
136.30000 0.88606 -0.20421 0.06606
136.40000 1.08889 -0.09974 0.00776
136.50000 0.93494 0.03096 -0.01090
136.60000 1.04740 0.30147 0.06188
136.70000 1.03628 0.37483 -0.06283
136.80000 0.96475 0.23115 0.04443
136.90000 1.04108 0.04751 0.07762
137.00000 1.00583 -0.20394 -0.11429
137.10000 1.01712 -0.20260 -0.00805
137.20000 0.99101 0.12089 0.05466
137.30000 0.96889 0.24250 -0.02736
137.40000 1.00178 0.36122 -0.02014
137.50000 0.98064 0.29465 0.06528
137.60000 1.01413 -0.00476 -0.04172
137.70000 1.04300 -0.03453 -0.01486
137.80000 0.99502 0.14791 0.00726
137.90000 1.01903 0.36389 0.04971
138.00000 1.05691 0.19159 -0.03380
138.10000 0.93867 -0.10821 0.00563
138.20000 1.02563 -0.33664 -0.00575
138.30000 0.90342 -0.19919 -0.03193
138.40000 1.10188 -0.14388 -0.02546
138.50000 0.92755 -0.03236 0.02171
138.60000 1.05191 0.24284 0.01224
138.70000 0.98297 0.21616 -0.01507
138.80000 0.95102 0.09547 -0.01434
138.90000 1.00052 0.06463 0.00684
139.00000 1.01453 0.12664 -0.01736
139.10000 1.03254 0.19565 -0.04644
139.20000 1.00032 0.18175 -0.00359
139.30000 1.01160 -0.05141 0.01002
139.40000 1.01168 -0.25390 -0.02427
139.50000 0.98287 -0.28928 -0.03175
139.60000 1.02490 -0.30344 0.00972
139.70000 1.00592 -0.43925 0.05494
139.80000 0.89688 -0.14205 -0.01079
139.90000 1.08851 -0.01222 0.01125
140.00000 0.89288 -0.01747 0.06657
140.10000 1.03201 -0.29499 -0.05990
140.20000 0.96948 -0.31179 -0.01049
140.30000 1.07292 0.07683 -0.00264
140.40000 0.90438 0.28189 -0.00335
140.50000 1.08438 0.19821 0.00533
140.60000 0.96365 0.11074 -0.05857
140.70000 1.03695 0.00231 0.04022
140.80000 1.01445 -0.05038 0.01515
140.90000 0.95600 -0.21286 -0.04753
141.00000 1.01170 -0.06574 -0.05536
141.10000 0.95906 -0.09955 -0.03315
141.20000 1.04486 0.10248 -0.01689
141.30000 0.87742 0.27885 0.05642
141.40000 1.05162 0.25135 0.02157
141.50000 1.00255 0.20693 -0.02604
141.60000 0.99407 0.09471 0.06306
141.70000 1.04437 -0.12684 -0.01141
141.80000 0.98414 0.05040 -0.00545
141.90000 0.94639 0.04596 0.02218
142.00000 1.06595 -0.08278 0.03019
142.10000 0.92911 -0.13977 0.01634
142.20000 0.95036 -0.21749 0.02240
142.30000 1.04002 -0.23794 0.02262
142.40000 0.98599 -0.06913 0.01348
142.50000 0.97313 -0.05339 -0.02737
142.60000 0.95611 -0.09323 0.04490
142.70000 1.02925 -0.01586 0.00118
142.80000 0.98507 0.06499 0.04389
142.90000 0.96951 0.21116 0.01820
143.00000 1.00937 0.02935 -0.05157
143.10000 0.95467 -0.10026 -0.01651
143.20000 1.03326 -0.00787 -0.00308
143.30000 0.95613 0.04841 0.02085
143.40000 0.96809 0.06423 -0.02870
143.50000 1.01315 0.13224 -0.04037
143.60000 0.98761 0.15022 -0.03931
143.70000 0.98165 0.03001 0.03781
143.80000 1.01700 -0.10975 -0.04128
143.90000 0.99708 -0.12054 -0.00200
144.00000 0.96917 -0.08082 0.04323
144.10000 1.01352 -0.03670 0.00266
144.20000 0.95487 -0.22044 -0.01185
144.30000 0.98394 -0.26200 -0.00176
144.40000 0.99819 0.01151 0.01485
144.50000 1.01125 0.27334 0.01070
144.60000 1.02811 0.17291 -0.02581
144.70000 0.96529 -0.04539 0.03638
144.80000 1.03194 -0.13790 -0.02067
144.90000 0.99609 -0.19852 -0.01811
145.00000 1.01463 -0.10758 0.04849
145.10000 1.03459 -0.19512 0.03482
145.20000 0.91363 -0.10534 -0.02844
145.30000 1.06716 -0.13147 0.04863
145.40000 1.00704 -0.23961 0.00754
145.50000 1.02417 0.00222 -0.03052
145.60000 1.01930 0.24963 0.04509
145.70000 1.00215 0.32074 -0.04451
145.80000 0.92447 0.10076 -0.00988
145.90000 1.00548 -0.00728 0.01148
146.00000 0.98906 0.03822 0.00244
146.10000 1.02174 -0.10340 -0.05634
146.20000 0.95126 -0.21222 0.02578
146.30000 1.01412 -0.18775 0.05201
146.40000 1.00246 -0.08487 -0.05017
146.50000 0.96386 -0.08010 -0.04814
146.60000 1.06179 -0.03681 0.08257
146.70000 0.92488 -0.05201 -0.02368
146.80000 1.03956 -0.02963 -0.05351
146.90000 0.98344 0.05277 0.05150
147.00000 0.97456 0.14294 0.01653
147.10000 1.04619 0.24474 -0.07071
147.20000 0.96062 0.21635 -0.00631
147.30000 0.93410 0.00035 0.02810
147.40000 1.07436 -0.12641 -0.06846
147.50000 0.95331 -0.12282 -0.00579
147.60000 1.05414 -0.07447 -0.00674
147.70000 0.97588 -0.03583 0.05533
147.80000 0.99072 0.08276 -0.02636
147.90000 1.06615 -0.02731 -0.04628
148.00000 0.90953 -0.11073 0.04991
148.10000 1.05253 -0.21387 0.06996
148.20000 0.91574 -0.11135 -0.06344
148.30000 1.01092 -0.03689 -0.05719
148.40000 0.98940 -0.04621 0.00354
148.50000 1.01691 -0.03752 0.05606
148.60000 0.98020 0.00209 -0.03458
148.70000 1.01551 0.00516 -0.08460
148.80000 1.03605 -0.35752 0.06876
148.90000 1.04781 -0.52959 -0.03102
149.00000 0.99522 -0.35505 0.01450
149.10000 1.01661 -0.13786 0.06630
149.20000 0.95322 0.21002 -0.05343
149.30000 1.01742 0.32855 -0.03243
149.40000 0.96272 0.27964 0.02545
149.50000 1.03514 0.32355 0.00059
149.60000 0.98292 0.25335 0.03842
149.70000 0.94986 0.08516 -0.03402
149.80000 1.03150 0.01008 0.00681
149.90000 0.95302 0.00535 0.01426
150.00000 0.96754 0.11769 -0.01085
150.10000 1.00581 0.13685 -0.03980
150.20000 1.00932 0.02518 0.04608
150.30000 1.01266 -0.07042 -0.00428
150.40000 0.99853 -0.16691 0.02203
150.50000 0.97353 0.09732 0.00300
150.60000 0.98240 0.14436 0.01548
150.70000 1.01306 0.07942 0.07961
150.80000 0.96202 0.21542 -0.04898
150.90000 1.08222 -0.06853 -0.00127
151.00000 0.92111 -0.13443 0.00319
151.10000 0.98976 -0.11524 0.01940
151.20000 1.03360 -0.07150 0.00905
151.30000 1.04582 -0.09004 -0.01699
151.40000 0.97200 -0.12840 -0.00588
151.50000 0.96632 0.07730 0.00928
151.60000 1.05450 -0.19752 0.04000
151.70000 0.95096 -0.28396 -0.02070
151.80000 1.05052 -0.07285 0.07374
151.90000 1.02267 0.01110 -0.04369
152.00000 0.91263 0.01267 -0.03735
152.10000 1.09309 -0.01877 0.05853
152.20000 1.01536 -0.02268 0.00829
152.30000 0.94267 0.06626 -0.00007
152.40000 0.95514 0.08042 0.02178
152.50000 1.08262 0.03019 0.04199
152.60000 0.98873 -0.08831 -0.05366
152.70000 1.00014 0.05484 -0.03478
152.80000 1.05671 0.07095 0.04086
152.90000 0.92270 -0.12910 -0.00243
153.00000 1.06511 -0.33640 0.00008
153.10000 0.91002 -0.35604 0.01748
153.20000 1.01389 -0.26123 0.03556
153.30000 1.03268 -0.11333 -0.04540
153.40000 1.01060 0.01616 0.04118
153.50000 0.99887 0.15965 -0.01617
153.60000 0.94977 0.24793 -0.09297
153.70000 1.00419 0.22091 0.01170
153.80000 0.97694 0.19863 0.02292
153.90000 1.02352 0.00183 -0.05588
154.00000 0.91063 -0.13609 -0.03615
154.10000 1.08495 -0.16946 0.05426
154.20000 1.01104 -0.29629 0.01668
154.30000 0.95732 -0.17891 0.00172
154.40000 0.98801 -0.10887 0.06992
154.50000 1.01482 -0.13751 -0.02927
154.60000 0.94233 -0.04156 -0.01431
154.70000 1.02038 0.02728 0.00161
154.80000 1.02613 0.07224 0.04093
154.90000 0.94685 -0.09293 0.02776
155.00000 0.99015 -0.04656 -0.06855
155.10000 1.00512 -0.24669 0.03487
155.20000 1.04545 -0.11733 0.00542
155.30000 0.97535 0.04432 0.04990
155.40000 1.03559 0.01874 -0.01859
155.50000 0.98602 -0.05656 0.02632
155.60000 1.05525 -0.00808 -0.04671
155.70000 0.95017 0.09839 0.01290
155.80000 1.00759 0.19768 0.04808
155.90000 1.00315 0.20568 0.01884
156.00000 0.91068 0.04568 0.03522
156.10000 1.03064 -0.22328 0.04432
156.20000 0.96481 -0.33701 -0.06241
156.30000 1.02940 -0.26585 -0.02388
156.40000 1.01419 -0.03955 0.02181
156.50000 1.01901 0.03566 -0.01391
156.60000 1.01457 0.09975 0.06890
156.70000 1.00162 0.04323 -0.00829
156.80000 1.03344 0.03434 -0.06747
156.90000 0.94770 0.10442 0.01942
157.00000 0.99671 0.21858 0.00536
157.10000 0.96799 0.20797 -0.00067
157.20000 1.05053 0.06873 0.00840
157.30000 0.98748 0.07766 0.02616
157.40000 0.97401 -0.03697 -0.02598
157.50000 1.01839 -0.00490 0.03312
157.60000 0.98783 -0.15901 0.01514
157.70000 1.02563 -0.11649 -0.00329
157.80000 0.96890 -0.14144 0.05593
157.90000 0.99504 -0.11580 0.00640
158.00000 1.01466 -0.15112 0.01663
158.10000 0.95710 -0.12263 0.00551
158.20000 1.00846 -0.16850 -0.05735
158.30000 0.96551 -0.22643 -0.01631
158.40000 0.98284 -0.17734 0.06159
158.50000 1.03298 0.01744 0.01131
158.60000 1.00682 0.21290 -0.01620
158.70000 0.96649 0.13163 0.00225
158.80000 0.98089 0.04369 0.07903
158.90000 0.99914 -0.09913 -0.01939
159.00000 0.95843 -0.11551 -0.01292
159.10000 0.98104 -0.19408 0.05583
159.20000 0.99879 -0.23024 -0.01815
159.30000 1.01758 -0.04928 -0.06139
159.40000 0.95763 0.08098 0.06784
159.50000 0.98914 0.11723 0.03937
159.60000 1.00934 -0.02230 0.00355
159.70000 0.94453 -0.14356 0.02072
159.80000 1.02984 -0.03786 -0.06771
159.90000 0.99195 0.19768 -0.04285
160.00000 0.97998 0.20568 0.05052
160.10000 1.04963 -0.00047 0.02529
160.20000 0.96414 -0.21183 -0.03297
160.30000 1.04335 -0.18512 -0.02097
160.40000 0.99188 -0.12328 0.01735
160.50000 0.98488 0.07172 -0.01647
160.60000 1.05002 0.17401 -0.01122
160.70000 0.95851 0.06598 0.07538
160.80000 1.04025 0.05439 0.02019
160.90000 0.94397 0.05099 -0.03823
161.00000 0.95984 0.13203 0.04713
161.10000 1.01887 0.07246 -0.00893
161.20000 1.03343 -0.16426 -0.02055
161.30000 0.95710 -0.05683 0.04102
161.40000 1.04142 0.06182 0.02193
161.50000 0.95541 -0.09690 -0.06042
161.60000 1.01324 -0.26674 0.02460
161.70000 1.02598 -0.10311 0.03091
161.80000 0.93934 0.09001 0.00700
161.90000 0.98018 0.07747 -0.06314
162.00000 1.07101 -0.10531 -0.00722
162.10000 0.98913 -0.17737 0.02075
162.20000 0.97665 -0.24444 -0.00390
162.30000 0.99654 -0.05083 -0.00126
162.40000 1.02149 -0.01359 -0.03224
162.50000 0.93547 -0.01342 0.02677
162.60000 1.09200 -0.24728 -0.00903
162.70000 0.98893 -0.13575 -0.02744
162.80000 0.93335 0.04421 0.03143
162.90000 1.08792 0.16227 0.01017
163.00000 0.97034 0.16298 -0.00379
163.10000 0.97011 0.08437 -0.06842
163.20000 1.04276 -0.05266 -0.00706
163.30000 1.03075 -0.12841 0.08856
163.40000 0.93630 -0.07799 -0.00183
163.50000 1.04721 -0.10607 -0.00682
163.60000 1.07737 0.00858 -0.05631
163.70000 0.96376 0.10470 0.07513
163.80000 0.99647 0.07592 -0.02484
163.90000 1.00492 0.04561 -0.02743
164.00000 0.98213 -0.05429 0.05988
164.10000 0.97949 -0.03161 -0.02968
164.20000 0.99952 0.20947 0.00381
164.30000 0.98004 0.20334 0.01854
164.40000 1.07879 0.03503 -0.04910
164.50000 0.92098 0.07829 -0.00902
164.60000 1.05431 -0.01150 0.00754
164.70000 0.99931 -0.08031 -0.03509
164.80000 1.04342 -0.28538 -0.03340
164.90000 0.97211 -0.42823 -0.00000
165.00000 1.00378 -0.33734 0.02873
165.10000 0.94394 -0.13112 -0.01270
165.20000 1.02950 -0.01908 -0.02814
165.30000 0.96911 -0.01602 -0.04707
165.40000 1.00546 -0.05016 0.04486
165.50000 1.02790 -0.16096 0.01380
165.60000 0.92389 -0.25159 -0.01312
165.70000 1.04887 0.07401 0.02796
165.80000 0.98120 0.26156 -0.00823
165.90000 0.94841 0.33828 -0.04272
166.00000 1.08007 0.03692 0.01650
166.10000 0.90305 0.01431 0.01386
166.20000 1.00391 -0.01862 -0.03256
166.30000 0.94487 -0.05859 0.00710
166.40000 1.09918 -0.09826 -0.03136
166.50000 0.94386 -0.22566 -0.00133
166.60000 1.04225 -0.00459 0.03247
166.70000 1.09077 0.30217 0.00809
166.80000 0.95861 0.53187 -0.06250
166.90000 1.01482 0.37181 0.04606
167.00000 1.06635 0.09034 -0.02519
167.10000 0.99350 -0.02076 -0.02264
167.20000 1.05250 0.05650 0.04562
167.30000 1.00384 0.20205 0.00772
167.40000 1.00706 0.19012 -0.03711
167.50000 1.01805 0.15851 0.07525
167.60000 1.06126 0.11745 -0.00027
167.70000 0.96738 0.17848 -0.03463
167.80000 1.01578 0.12867 0.02653
167.90000 1.04591 0.09656 0.02976
168.00000 0.92587 0.12369 -0.04529
168.10000 1.03788 0.20998 0.01503
168.20000 0.98756 0.06254 -0.00760
168.30000 0.99888 0.04294 -0.00560
168.40000 1.04060 -0.02265 0.01882
168.50000 0.98224 -0.00287 -0.02505
168.60000 1.02247 0.13546 0.04685
168.70000 1.03361 0.14118 -0.00239
168.80000 0.93836 -0.00675 -0.03090
168.90000 0.99424 -0.05835 -0.03218
169.00000 1.02917 0.01523 -0.02493
169.10000 0.98292 0.00230 -0.02610
169.20000 1.00445 0.01636 0.04352
169.30000 0.97958 0.09917 -0.00989
169.40000 0.97314 0.14264 0.06577
169.50000 1.04380 0.15322 0.01794
169.60000 0.96270 0.15562 -0.00434
169.70000 1.00333 -0.01052 0.00318
169.80000 0.99364 -0.03427 -0.03483
169.90000 0.98714 0.18360 -0.03315
170.00000 1.04521 0.29256 0.06095
170.10000 0.99102 0.13682 -0.02385
170.20000 0.99009 0.02511 -0.03288
170.30000 1.04397 0.03992 -0.00087
170.40000 0.94752 0.14053 0.01797
170.50000 1.05334 0.12596 0.03180
170.60000 0.99476 0.05241 -0.03422
170.70000 0.99562 0.12826 0.07985
170.80000 1.00381 -0.00447 -0.00032
170.90000 0.96149 -0.12439 -0.02535
171.00000 1.10170 -0.10045 0.05442
171.10000 0.91307 0.01865 0.01096
171.20000 1.06146 0.08269 -0.00943
171.30000 1.00515 0.04867 -0.04198
171.40000 1.00689 0.09193 0.00602
171.50000 0.96389 0.29818 -0.00125
171.60000 0.99089 0.24423 -0.02428
171.70000 1.04750 0.01798 0.11051
171.80000 0.97586 -0.18285 -0.01155
171.90000 0.97101 -0.13242 -0.01539
172.00000 1.00070 0.01195 0.00288
172.10000 1.00520 0.06958 -0.04263
172.20000 1.03619 -0.04735 0.02045
172.30000 0.94777 -0.10477 0.00545
172.40000 0.99519 -0.08528 0.06274
172.50000 1.05085 -0.15667 0.01064
172.60000 0.93341 -0.10834 -0.04596
172.70000 1.04414 0.04230 -0.00458
172.80000 1.01096 0.13899 0.01309
172.90000 0.98854 -0.04055 -0.02861
173.00000 1.00391 0.03557 -0.03688
173.10000 1.01029 -0.00484 0.03371
173.20000 0.96526 -0.01854 -0.04424
173.30000 1.00575 0.06599 -0.01031
173.40000 0.94749 0.10963 0.02882
173.50000 0.97320 -0.07016 -0.03719
173.60000 0.99431 -0.13414 -0.00939
173.70000 0.95136 -0.20493 0.03017
173.80000 1.11122 -0.13859 0.00666
173.90000 0.92260 -0.00928 0.02074
174.00000 1.07182 0.03494 0.06126
174.10000 0.94636 -0.05629 -0.04475
174.20000 0.98701 -0.14430 -0.00435
174.30000 1.01597 -0.18408 -0.01236
174.40000 0.89132 -0.20765 -0.00640
174.50000 1.10413 -0.01228 -0.02108
174.60000 0.93998 -0.07292 -0.03471
174.70000 0.99810 -0.09497 0.01218
174.80000 0.96511 -0.04739 0.01524
174.90000 1.01547 -0.00181 -0.02532
175.00000 1.00705 0.08360 0.00548
175.10000 1.02104 0.20941 0.00407
175.20000 1.00048 0.31256 -0.03468
175.30000 0.99812 0.16810 0.05935
175.40000 0.97952 -0.03795 0.03431
175.50000 1.03893 -0.04831 0.00237
175.60000 1.02789 -0.14382 0.04134
175.70000 0.94237 -0.26186 -0.05901
175.80000 1.06488 -0.15077 0.02060
175.90000 1.01591 -0.05726 -0.00381
176.00000 1.00960 0.03346 0.00498
176.10000 0.99010 0.05308 -0.01791
176.20000 0.96263 0.13159 -0.00496
176.30000 1.05385 0.12703 0.08859
176.40000 0.97380 0.09238 -0.00747
176.50000 1.03693 0.12920 -0.06439
176.60000 0.91205 0.15755 0.04595
176.70000 1.02298 0.14049 -0.00193
176.80000 0.97801 0.02394 -0.05127
176.90000 0.98095 -0.03067 0.00125
177.00000 1.02318 0.06290 0.02868
177.10000 1.01660 -0.05019 -0.02960
177.20000 0.97462 0.05467 -0.00298
177.30000 1.02143 0.11060 0.03644
177.40000 1.01846 0.11392 -0.04941
177.50000 0.99974 0.11463 0.00689
177.60000 0.94879 0.09270 -0.01432
177.70000 1.02275 -0.08624 0.00876
177.80000 1.00061 -0.08700 0.01835
177.90000 0.98606 -0.07645 -0.02676
178.00000 1.09323 0.13245 0.05041
178.10000 0.94304 0.25318 0.01771
178.20000 0.98378 -0.10083 -0.02869
178.30000 0.97872 -0.10626 -0.00591
178.40000 1.04164 0.05810 -0.00895
178.50000 0.99182 0.26211 -0.00395
178.60000 0.96772 0.23816 0.05444
178.70000 1.02716 0.20174 -0.03706
178.80000 0.98760 0.08027 -0.00514
178.90000 1.03232 0.20968 -0.03379
179.00000 1.02842 0.35643 0.06379
179.10000 0.99621 0.14026 0.01861
179.20000 1.01280 -0.01315 0.00003
179.30000 0.98693 -0.07857 0.05253
179.40000 1.00534 -0.09262 -0.03860
179.50000 0.95419 -0.01111 0.00367
179.60000 1.06448 0.10532 -0.02929
179.70000 0.97129 0.05773 -0.05182
179.80000 1.06599 0.13511 0.00164
179.90000 0.90463 -0.05279 0.08549
180.00000 1.04077 -0.09109 -0.01830
180.10000 0.94967 0.12774 -0.04498
180.20000 1.00817 0.26609 0.01632
180.30000 1.01508 0.25802 0.01409
180.40000 0.96577 0.13146 -0.01229
180.50000 1.07952 0.15630 0.01779
180.60000 0.96477 -0.00303 0.01504
180.70000 1.00332 -0.05279 -0.04025
180.80000 0.97011 -0.04079 0.07063
180.90000 0.99140 -0.20563 -0.04654
181.00000 1.04874 -0.24980 -0.03697
181.10000 0.98242 -0.22483 0.06667
181.20000 1.02397 -0.26903 0.06454
181.30000 0.97788 -0.18397 -0.08047
181.40000 0.98450 0.09422 -0.02985
181.50000 1.03878 0.06399 0.04868
181.60000 0.99147 0.20502 -0.03546
181.70000 0.99762 -0.01394 -0.02811
181.80000 0.98100 -0.19106 0.08998
181.90000 0.99454 -0.12194 -0.01201
182.00000 0.93158 -0.13265 -0.04272
182.10000 1.04427 0.03030 -0.02995
182.20000 0.96778 0.10057 0.04515
182.30000 1.03342 0.15466 -0.03818
182.40000 1.04236 0.08475 -0.01299
182.50000 0.91599 0.04141 0.02422
182.60000 0.98270 0.00037 -0.02189
182.70000 1.05099 -0.10406 0.00404
182.80000 1.01624 -0.11974 0.02918
182.90000 0.95976 -0.20555 -0.02205
183.00000 1.05843 -0.29407 0.02682
183.10000 0.95113 -0.26186 0.03056
183.20000 1.00208 -0.02606 -0.02271
183.30000 1.00761 -0.00776 -0.03974
183.40000 1.00610 -0.06665 0.04716
183.50000 0.96104 0.01202 -0.01017
183.60000 1.02304 0.11741 -0.07508
183.70000 0.93992 0.04358 0.03620
183.80000 1.09748 -0.17589 -0.00572
183.90000 1.00752 -0.03905 -0.06566
184.00000 1.00177 0.12835 -0.00591
184.10000 0.99399 0.12308 -0.00307
184.20000 0.97538 0.01202 -0.04530
184.30000 0.98169 -0.11722 0.03509
184.40000 0.97338 -0.15874 0.05530
184.50000 1.04020 -0.06508 -0.10071
184.60000 0.94015 0.06785 0.03664
184.70000 1.07619 0.26272 0.07486
184.80000 0.95934 0.22046 0.00007
184.90000 0.98895 -0.03500 -0.05017
185.00000 1.04570 -0.16334 0.05257
185.10000 0.93873 -0.18355 0.01667
185.20000 1.10527 -0.19029 0.03855
185.30000 0.89259 -0.18884 -0.03026
185.40000 1.02569 -0.26626 -0.02832
185.50000 1.06609 -0.22820 -0.01664
185.60000 0.94364 -0.18462 -0.00960
185.70000 1.03232 0.11193 -0.01313
185.80000 0.95123 0.20954 0.02735
185.90000 1.07597 0.07656 -0.01093
186.00000 0.96457 -0.14026 -0.01899
186.10000 1.01239 -0.19000 -0.00107
186.20000 1.00601 -0.15543 0.03210
186.30000 0.95773 -0.02631 -0.05385
186.40000 1.07463 0.07519 0.04010
186.50000 0.99670 -0.04040 0.01618
186.60000 1.02491 -0.06540 -0.04413
186.70000 0.99568 0.00615 0.00576
186.80000 1.03195 0.13803 0.03568
186.90000 0.96857 0.08812 -0.05790
187.00000 1.00380 -0.10066 -0.03445
187.10000 1.01014 -0.20032 0.03859
187.20000 0.95268 -0.11108 -0.01202
187.30000 1.02113 0.05853 -0.00818
187.40000 0.99850 0.23271 0.06492
187.50000 1.05116 0.18701 0.00764
187.60000 0.99077 0.19020 -0.05563
187.70000 0.99956 -0.02825 -0.00160
187.80000 0.98736 -0.28059 0.02118
187.90000 1.00340 -0.27973 -0.01944
188.00000 0.94220 -0.23711 -0.04153
188.10000 0.99827 -0.10967 0.05737
188.20000 0.97370 0.12073 -0.01202
188.30000 0.97587 0.11706 -0.01371
188.40000 0.96422 -0.11263 0.02160
188.50000 0.99506 -0.00868 -0.05138
188.60000 1.02517 0.11629 -0.00587
188.70000 1.03242 -0.08110 0.01442
188.80000 0.98920 -0.21436 -0.02983
188.90000 1.03412 -0.19283 0.03704
189.00000 0.92178 0.01869 0.00442
189.10000 1.06905 0.14370 -0.04278
189.20000 0.92030 0.18489 0.04713
189.30000 1.05181 0.06433 0.01655
189.40000 0.96467 -0.01252 -0.00734
189.50000 0.97504 -0.05882 -0.04151
189.60000 1.02730 -0.08556 -0.05806
189.70000 0.96594 -0.04670 0.05817
189.80000 0.99388 0.06424 -0.03345
189.90000 0.97972 0.20285 -0.00774
190.00000 0.94996 0.21771 0.02759
190.10000 1.02030 0.14473 -0.02347
190.20000 0.95275 0.03670 0.00519
190.30000 1.03015 -0.12129 -0.03218
190.40000 0.98659 -0.24734 0.01529
190.50000 1.04262 0.00755 -0.01360
190.60000 0.90690 0.04676 -0.02318
190.70000 1.06359 -0.02123 -0.03187
190.80000 0.96464 0.18257 0.01775
190.90000 1.05921 0.16034 0.05562
191.00000 0.95400 0.03923 0.02186
191.10000 0.99156 -0.16618 -0.03852
191.20000 1.07005 -0.19378 -0.02757
191.30000 0.97542 -0.04519 0.03333
191.40000 1.01378 0.18924 0.05460
191.50000 1.04669 0.23368 -0.00199
191.60000 0.97646 0.14799 0.01794
191.70000 0.99443 0.13140 -0.00077
191.80000 0.95979 0.35167 0.04143
191.90000 1.02069 0.17224 -0.00272
192.00000 1.03696 0.04708 -0.02129
192.10000 0.98323 0.00368 -0.01536
192.20000 0.99134 0.22302 0.07492
192.30000 1.03044 0.22811 0.01765
192.40000 0.98829 0.13079 -0.05538
192.50000 1.05450 -0.06856 -0.02551
192.60000 1.01251 -0.02525 0.03498
192.70000 1.00792 0.21873 -0.03916
192.80000 0.98213 0.17814 -0.03443
192.90000 1.04106 0.05416 0.00534
193.00000 0.98094 -0.09587 0.04262
193.10000 0.97220 -0.22079 -0.03472
193.20000 1.01955 0.04383 0.02588
193.30000 1.00787 0.20991 0.03827
193.40000 1.03667 0.22949 0.03225
193.50000 0.93719 0.07731 -0.05698
193.60000 0.97660 -0.00898 -0.06493
193.70000 0.98908 -0.06561 -0.00774
193.80000 0.91017 -0.01510 0.08091
193.90000 1.10132 -0.10830 -0.03890
194.00000 0.87140 -0.23669 0.01874
194.10000 1.04868 -0.17863 -0.06479
194.20000 1.04455 -0.18476 0.04926
194.30000 0.95905 -0.13745 0.02223
194.40000 1.01457 -0.06393 -0.04840
194.50000 1.01744 0.05805 0.02664
194.60000 0.97926 0.06585 -0.02405
194.70000 1.04904 0.03278 -0.04616
194.80000 0.88267 -0.03734 0.05058
194.90000 0.99021 -0.10580 0.01970
195.00000 1.02673 -0.08022 0.07259
195.10000 0.97618 0.03566 -0.00861
195.20000 1.00295 0.03127 0.00912
195.30000 0.95826 -0.23208 -0.00506
195.40000 0.95684 -0.27819 0.00554
195.50000 0.96342 -0.05393 0.01385
195.60000 0.95124 0.00482 -0.03212
195.70000 0.94942 0.17904 0.04272
195.80000 1.00976 0.15552 0.01355
195.90000 0.94911 -0.03601 -0.00839
196.00000 1.02059 -0.05219 0.03094
196.10000 0.95710 0.01120 -0.06897
196.20000 1.04740 0.08385 0.03399
196.30000 0.98903 0.24967 0.03288
196.40000 0.94362 0.14012 -0.00943
196.50000 1.04595 -0.03949 0.02800
196.60000 0.90462 0.02124 0.03910
196.70000 1.03772 0.13555 -0.05551
196.80000 1.05001 0.27899 0.03064
196.90000 0.95722 0.25281 0.04569
197.00000 1.04120 -0.09132 -0.03982
197.10000 0.93159 -0.33663 0.02387
197.20000 1.00510 -0.29300 -0.02953
197.30000 1.01635 -0.13888 0.00589
197.40000 1.04021 -0.02945 0.00795
197.50000 0.99775 -0.17973 0.01107
197.60000 0.98954 -0.25462 -0.03600
197.70000 0.98217 -0.14587 0.01537
197.80000 0.99837 0.05323 -0.00228
197.90000 0.98543 0.24237 -0.01487
198.00000 0.99378 0.23967 -0.03289
198.10000 0.95767 0.06430 0.05919
198.20000 1.06799 0.00219 -0.05705
198.30000 0.94300 -0.05674 -0.01420
198.40000 0.98727 -0.12865 0.02500
198.50000 0.89788 -0.35020 0.01413
198.60000 1.05483 -0.34321 -0.02193
198.70000 0.97478 -0.26470 -0.04034
198.80000 1.05431 -0.06774 -0.01419
198.90000 0.98144 0.03804 -0.02324
199.00000 0.95284 0.06624 0.02457
199.10000 1.10480 0.00816 0.01771
199.20000 0.92107 0.08378 0.01528
199.30000 1.04465 0.11162 -0.01547
199.40000 1.00357 -0.05892 -0.04164
199.50000 0.97132 -0.02953 -0.05957
199.60000 1.03190 -0.14367 0.04285
199.70000 1.02138 -0.18284 0.01301
199.80000 1.01237 -0.27786 -0.03183
199.90000 1.01285 -0.11771 -0.03569
200.00000 0.96231 -0.11274 0.04029
200.10000 1.03576 -0.16872 0.00007
200.20000 0.94770 -0.19163 0.00366
200.30000 1.05680 -0.16968 0.01693
200.40000 1.02714 -0.10989 -0.02528
200.50000 0.97077 -0.10668 0.04773
200.60000 1.01380 -0.11811 -0.00280
200.70000 0.98997 0.05603 0.01253
200.80000 1.00669 0.06092 -0.04614
200.90000 0.98702 0.09173 -0.01904
201.00000 1.02362 0.15216 0.01302
201.10000 0.94790 0.08017 -0.02592
201.20000 1.08522 -0.08504 -0.00674
201.30000 0.94754 -0.06004 0.01877
201.40000 1.05322 0.13338 -0.03581
201.50000 0.94414 0.13088 -0.03348
201.60000 1.00327 -0.00964 0.03954
201.70000 0.97509 -0.08076 0.00569
201.80000 1.07708 -0.04511 0.06072
201.90000 0.95251 -0.20252 0.00108
202.00000 0.98338 -0.05739 -0.05747
202.10000 1.04709 0.00404 0.03393
202.20000 0.92403 0.15521 0.03127
202.30000 1.04495 0.24193 -0.02132
202.40000 0.96590 0.07332 0.03161
202.50000 0.99606 -0.08973 0.00317
202.60000 0.98472 -0.14478 -0.01924
202.70000 1.01599 -0.05071 0.02238
202.80000 1.02856 0.18816 0.02064
202.90000 0.96566 0.28070 -0.01301
203.00000 0.99341 0.07760 0.01938
203.10000 1.00280 -0.14523 -0.05047
203.20000 0.99922 -0.13255 0.03868
203.30000 0.97430 -0.13357 0.02868
203.40000 1.00186 -0.12467 -0.04194
203.50000 0.98401 -0.07664 0.03292
203.60000 0.96632 0.20858 0.01076
203.70000 1.01121 0.29955 -0.06623
203.80000 1.03896 0.21813 0.03447
203.90000 0.92696 0.12054 -0.02056
204.00000 1.01231 0.23859 0.02125
204.10000 0.96312 0.25962 -0.01574
204.20000 0.99961 0.13834 -0.02075
204.30000 1.01145 -0.01896 0.06629
204.40000 0.96197 -0.01746 -0.08244
204.50000 1.08542 0.11454 -0.00448
204.60000 0.95673 -0.01980 0.08326
204.70000 1.04201 -0.13204 -0.01417
204.80000 1.01093 0.04655 -0.03792
204.90000 0.84283 -0.00662 0.01240
205.00000 1.14153 -0.05419 -0.02192
205.10000 0.96441 -0.10124 -0.06030
205.20000 0.97354 -0.03591 0.00242
205.30000 0.98263 0.17024 0.06180
205.40000 0.97095 0.28895 -0.03138
205.50000 1.01860 0.20563 0.00113
205.60000 0.98886 0.02083 0.05326
205.70000 1.02773 -0.00990 -0.00740
205.80000 1.00330 0.06909 -0.04700
205.90000 0.99785 0.06619 -0.01443
206.00000 0.98473 -0.18282 -0.01437
206.10000 1.03027 -0.15766 0.04643
206.20000 0.98804 -0.07741 -0.00668
206.30000 0.96053 -0.01222 -0.00651
206.40000 0.98677 0.02902 -0.01562
206.50000 1.06279 0.12390 0.02525
206.60000 0.96726 0.14630 -0.04218
206.70000 1.03279 0.08522 -0.01343
206.80000 0.98813 0.05070 -0.01103
206.90000 1.00045 0.10007 -0.00203
207.00000 0.98599 0.04138 0.03667
207.10000 0.93307 -0.04901 -0.02992
207.20000 0.98690 -0.09735 0.00658
207.30000 1.00474 -0.13872 0.00843
207.40000 0.99495 0.13370 0.00360
207.50000 0.98343 0.17041 -0.01957
207.60000 0.99732 0.15370 -0.01159
207.70000 0.99687 0.09913 0.07599
207.80000 1.01029 0.02794 0.01900
207.90000 0.97537 -0.08280 -0.01595
208.00000 1.04596 -0.25816 0.00087
208.10000 1.00196 -0.17482 -0.01397
208.20000 0.99210 0.09618 -0.02192
208.30000 1.01641 0.07086 -0.01027
208.40000 1.01054 -0.06062 0.03287
208.50000 0.96759 -0.06460 -0.01791
208.60000 1.05004 -0.07143 -0.02660
208.70000 0.98762 -0.01670 -0.01969
208.80000 1.01407 0.20497 -0.01418
208.90000 1.00327 0.13672 -0.01284
209.00000 1.03476 -0.08014 0.02211
209.10000 0.95712 -0.19480 0.01870
209.20000 0.93771 -0.14651 -0.01299
209.30000 1.06532 -0.06114 0.04819
209.40000 0.92888 0.00670 0.00886
209.50000 1.10226 0.12747 0.03051
209.60000 0.92011 0.26618 -0.04638
209.70000 1.00759 0.06768 -0.01435
209.80000 1.05122 -0.06666 0.05011
209.90000 0.95182 -0.16114 -0.02101
210.00000 1.05627 -0.06489 0.01597
210.10000 1.02858 0.17243 -0.10670
210.20000 0.99922 0.25136 -0.03778
210.30000 0.98009 0.33990 0.09093
210.40000 0.98091 0.37363 0.02860
210.50000 1.03748 0.13779 -0.04789
210.60000 0.98867 -0.18855 0.02773
210.70000 0.95516 -0.07238 -0.01008
210.80000 0.96371 -0.01772 0.01356
210.90000 1.00438 -0.20286 -0.07492
211.00000 0.98784 -0.32627 -0.03777
211.10000 0.98842 -0.33187 0.08490
211.20000 0.94400 -0.20883 -0.04425
211.30000 1.00814 -0.13123 -0.01826
211.40000 1.00798 -0.05565 0.05387
211.50000 1.01268 -0.26824 -0.00317
211.60000 1.01540 -0.32423 -0.06610
211.70000 1.00565 -0.10414 0.03217
211.80000 1.01912 0.01472 0.08041
211.90000 0.98093 -0.01762 -0.03895
212.00000 0.97019 -0.13124 -0.00952
212.10000 0.93198 -0.18377 0.02844
212.20000 1.09779 -0.10944 -0.02698
212.30000 0.92055 -0.15515 -0.03948
212.40000 1.07681 -0.23143 0.03110
212.50000 0.98332 -0.21428 -0.00371
212.60000 0.96984 -0.01896 -0.02710
212.70000 1.01131 0.22646 -0.01775
212.80000 0.96623 0.22922 0.02823
212.90000 0.93113 0.04948 -0.01325
213.00000 1.02091 0.07198 0.00834
213.10000 0.98888 0.22525 0.02181
213.20000 0.98354 0.20148 0.00262
213.30000 1.06371 0.13357 -0.05222
213.40000 0.96636 0.14380 0.02806
213.50000 0.99235 0.06022 -0.00843
213.60000 1.01943 -0.11896 -0.01213
213.70000 0.95578 0.00926 -0.02860
213.80000 1.05966 0.15099 0.04849
213.90000 0.92671 0.17814 -0.02735
214.00000 1.07872 0.02868 -0.04399
214.10000 1.01581 -0.13376 0.01289
214.20000 0.97591 -0.12219 -0.04857
214.30000 1.03659 -0.03406 -0.00579
214.40000 0.93321 -0.22692 0.03075
214.50000 1.01458 -0.43734 -0.01981
214.60000 0.99253 -0.37275 0.04499
214.70000 0.93010 -0.23349 0.00574
214.80000 1.08982 0.04248 -0.09313
214.90000 0.91411 0.16853 -0.01971
215.00000 1.05980 0.14859 0.02731
215.10000 1.06216 0.17834 -0.00221
215.20000 0.92684 0.03467 -0.06295
215.30000 1.01273 0.01056 0.02420
215.40000 0.98418 0.05715 -0.00943
215.50000 0.97944 0.20148 -0.03932
215.60000 1.01608 -0.04768 -0.00320
215.70000 0.96187 -0.10124 0.02402
215.80000 1.07250 0.09276 -0.02601
215.90000 0.94687 0.10960 0.02213
216.00000 1.00544 0.38517 -0.02599
216.10000 0.99727 0.51407 0.00492
216.20000 0.97485 0.23929 -0.06798
216.30000 0.95321 -0.18538 0.03191
216.40000 1.02172 -0.36676 0.00875
216.50000 0.95638 -0.25962 0.02021
216.60000 1.01172 -0.16990 -0.00896
216.70000 1.05581 -0.01255 -0.02955
216.80000 0.91521 -0.03652 0.02141
216.90000 1.08851 -0.02688 0.02040
217.00000 1.02334 -0.05908 -0.06678
217.10000 0.99243 -0.11566 0.01199
217.20000 0.99625 -0.10718 0.07002
217.30000 1.03854 -0.10429 -0.03352
217.40000 0.95919 0.12703 -0.02547
217.50000 1.08110 0.11483 0.07106
217.60000 1.00030 0.10823 -0.00428
217.70000 1.02743 0.13625 -0.03398
217.80000 0.96596 0.12448 0.02812
217.90000 1.07682 0.30660 -0.02390
218.00000 0.92383 0.25144 -0.00568
218.10000 1.07646 0.14077 0.03051
218.20000 0.96647 0.13235 -0.00733
218.30000 0.98412 0.24896 0.04328
218.40000 1.00258 0.09840 -0.02205
218.50000 0.96297 -0.21552 -0.05902
218.60000 1.05651 -0.38856 0.00007
218.70000 0.96714 -0.12422 0.11285
218.80000 0.96036 0.06099 0.00908
218.90000 1.08818 0.13410 -0.02961
219.00000 0.93616 0.10407 0.01382
219.10000 1.01004 0.09848 0.02627
219.20000 1.05897 0.03963 0.00662
219.30000 0.93168 -0.02924 -0.02974
219.40000 1.02362 0.00675 -0.00613
219.50000 1.01180 -0.13536 0.03383
219.60000 0.93221 -0.25678 -0.04236
219.70000 1.01441 -0.03100 0.04908
219.80000 0.96409 0.09606 0.02685
219.90000 0.97812 0.13131 -0.03349
220.00000 0.98371 0.02769 -0.02104
220.10000 0.89698 -0.04089 -0.05823
220.20000 1.08735 -0.05703 -0.02404
220.30000 0.86286 0.05436 -0.02018
220.40000 1.04003 -0.02002 0.03920
220.50000 0.99067 -0.00384 -0.07591
220.60000 0.93784 -0.18199 -0.05473
220.70000 1.09847 -0.16638 0.05584
220.80000 0.98393 -0.06337 0.00920
220.90000 0.99890 -0.01641 -0.02240
221.00000 1.02951 0.01815 0.00430
221.10000 1.02139 0.15797 -0.05058
221.20000 1.04457 0.07743 0.00701
221.30000 0.99758 0.00488 0.01691
221.40000 1.03251 -0.07084 0.03743
221.50000 0.98690 -0.05488 -0.01608
221.60000 1.00142 -0.03337 0.02718
221.70000 1.00575 0.24433 -0.00360
221.80000 1.07771 0.42059 -0.00799
221.90000 0.99703 0.29917 -0.00493
222.00000 0.97996 -0.00406 -0.02976
222.10000 0.99995 0.07426 -0.03176
222.20000 1.04781 0.21596 0.02761
222.30000 1.00382 0.33980 0.08998
222.40000 0.96848 0.20871 -0.07285
222.50000 1.06441 0.03476 -0.01232
222.60000 0.99391 0.01648 0.04402
222.70000 0.97514 0.16806 -0.01229
222.80000 1.07314 0.13802 -0.00993
222.90000 0.93190 0.11780 0.01433
223.00000 1.07964 0.02314 0.02241
223.10000 0.98907 -0.19117 -0.00944
223.20000 0.95068 -0.08209 -0.03382
223.30000 1.05996 0.07889 -0.04913
223.40000 0.97197 -0.01003 0.00537
223.50000 1.05754 -0.17962 0.00424
223.60000 0.98645 -0.18842 -0.02988
223.70000 0.96606 -0.03877 -0.03354
223.80000 1.06830 0.10987 -0.02825
223.90000 0.93834 0.16792 0.01776
224.00000 1.00678 0.12861 -0.04500
224.10000 1.01356 0.04429 0.01846
224.20000 1.02565 -0.08948 0.02618
224.30000 0.98734 -0.19679 -0.01442
224.40000 1.01435 -0.13484 -0.00245
224.50000 1.03841 0.01634 0.00768
224.60000 0.96942 0.11359 0.03000
224.70000 1.00089 0.16828 -0.02817
224.80000 0.98281 -0.11304 -0.00266
224.90000 1.01715 -0.19643 -0.05474
225.00000 0.98949 -0.35383 0.01646
225.10000 0.93468 -0.22325 -0.01825
225.20000 1.09647 0.06647 0.02534
225.30000 0.94485 0.00668 0.04764
225.40000 1.05322 -0.22287 -0.05382
225.50000 1.01573 -0.31637 0.00950
225.60000 0.98454 0.07273 0.00333
225.70000 1.05664 0.30500 0.01978
225.80000 0.97749 0.21435 -0.00129
225.90000 0.96283 0.18116 -0.00303
226.00000 1.10577 0.00728 0.02091
226.10000 0.88447 -0.14318 -0.06249
226.20000 1.02558 -0.11927 0.08911
226.30000 1.01031 -0.14347 -0.00043
226.40000 0.98204 -0.08388 -0.04647
226.50000 0.96002 0.01922 0.05603
226.60000 0.98426 0.14036 0.02799
226.70000 1.01677 0.09159 -0.02815
226.80000 0.97423 -0.00312 0.05569
226.90000 1.01849 0.16120 0.06124
227.00000 0.94883 0.18345 -0.02564
227.10000 1.01374 0.23715 -0.00202
227.20000 0.96546 0.27919 0.04436
227.30000 1.05866 0.15319 0.03470
227.40000 0.93411 -0.02762 -0.03665
227.50000 1.03670 0.09878 -0.00314
227.60000 0.98437 0.02074 -0.00466
227.70000 1.03310 0.12051 0.04835
227.80000 0.92162 0.09149 0.01308
227.90000 1.03589 0.08905 0.00732
228.00000 1.06174 0.03544 -0.03325
228.10000 0.96536 0.12463 0.00326
228.20000 0.98375 0.10609 0.00396
228.30000 0.97199 -0.09457 0.00137
228.40000 1.02768 -0.17695 0.00741
228.50000 0.90945 -0.31618 0.01065
228.60000 1.01705 -0.27998 -0.02572
228.70000 0.95952 -0.07118 -0.01117
228.80000 1.07110 0.04394 0.00127
228.90000 1.03343 0.07596 0.00308
229.00000 0.99181 0.06223 0.02875
229.10000 1.00365 0.07685 -0.01893
229.20000 1.03662 0.06085 0.06391
229.30000 0.95509 0.09180 0.01489
229.40000 1.01894 -0.04708 0.06437
229.50000 1.00878 -0.08736 0.03540
229.60000 1.06557 -0.07850 -0.10222
229.70000 0.91520 -0.17836 0.00963
229.80000 1.00995 -0.30391 -0.00841
229.90000 1.02536 -0.39716 -0.02685
230.00000 1.01218 -0.27560 0.02716
230.10000 0.98731 -0.08079 0.00288
230.20000 0.98613 -0.05777 -0.04968
230.30000 0.99057 0.03992 0.04409
230.40000 1.00533 0.23958 0.03369
230.50000 1.08361 0.25169 -0.03746
230.60000 0.95278 -0.11431 -0.00133
230.70000 1.07173 -0.12406 0.02519
230.80000 0.97270 -0.00072 0.04673
230.90000 1.03124 0.00350 -0.03986
231.00000 0.97852 0.06350 -0.04126
231.10000 1.03763 0.11332 -0.01426
231.20000 1.01677 0.09493 0.01390
231.30000 1.02669 -0.14659 0.03782
231.40000 0.93707 -0.16898 0.03613
231.50000 1.05742 -0.02293 -0.00395
231.60000 0.97731 0.07633 -0.01707
231.70000 1.00077 0.04063 0.04972
231.80000 0.98796 0.04536 -0.03421
231.90000 0.99079 0.00358 0.02454
232.00000 0.99791 -0.08183 0.02250
232.10000 0.99748 0.07432 0.00947
232.20000 0.97488 0.06132 -0.04487
232.30000 1.09453 -0.04755 -0.02373
232.40000 1.01099 -0.05787 0.03670
232.50000 0.99034 0.08817 0.03182
232.60000 0.94853 0.02794 -0.01507
232.70000 1.07095 0.03164 -0.01315
232.80000 1.01665 -0.03839 0.06138
232.90000 0.96312 -0.05264 -0.01473
233.00000 1.02415 0.02329 0.04669
233.10000 1.00471 0.16412 -0.03807
233.20000 0.99718 0.22627 0.05680
233.30000 0.99575 0.02205 0.02777
233.40000 1.02142 -0.13072 -0.03793
233.50000 0.98789 -0.23180 0.02531
233.60000 1.03020 -0.19736 -0.03574
233.70000 1.01256 -0.27716 -0.01483
233.80000 0.98334 -0.09609 0.07907
233.90000 0.97166 -0.08366 -0.00960
234.00000 1.05584 -0.02484 -0.01212
234.10000 0.95934 0.02348 0.00618
234.20000 0.96232 0.04547 -0.02736
234.30000 0.99010 0.03360 -0.03328
234.40000 1.04242 0.05128 0.00501
234.50000 0.97622 0.23129 0.01144
234.60000 1.01278 0.11565 0.00244
234.70000 0.97764 -0.14406 -0.08937
234.80000 0.95350 -0.10193 0.02391
234.90000 1.04826 -0.17480 0.01270
235.00000 0.96937 -0.11005 0.01482
235.10000 1.03951 0.02476 -0.00613
235.20000 0.93192 0.19139 -0.03607
235.30000 1.10431 0.05225 0.00931
235.40000 0.87463 -0.14674 -0.01863
235.50000 1.05478 -0.19680 0.01203
235.60000 0.95464 -0.21489 0.05447
235.70000 1.02636 -0.03256 -0.06686
235.80000 0.97355 0.13954 0.01127
235.90000 1.04393 0.28699 -0.00772
236.00000 0.95693 0.16476 -0.01288
236.10000 1.06553 -0.04711 0.00977
236.20000 0.95228 -0.20224 0.06062
236.30000 1.03522 -0.37988 0.00329
236.40000 0.98464 -0.25331 -0.03949
236.50000 0.99340 0.05808 0.00605
236.60000 1.00543 0.11492 0.02762
236.70000 0.98290 0.09362 -0.02606
236.80000 1.02611 -0.25938 0.01030
236.90000 0.95545 -0.43289 0.00553
237.00000 1.04959 -0.35680 -0.00381
237.10000 0.99426 -0.11176 0.01339
237.20000 0.96123 0.10296 -0.02028
237.30000 1.01247 0.22050 -0.04765
237.40000 0.97088 0.12119 0.04180
237.50000 1.03564 -0.10073 -0.00952
237.60000 1.01351 -0.36215 0.01070
237.70000 0.98880 -0.52558 -0.01615
237.80000 1.08248 -0.42883 -0.00946
237.90000 0.96055 -0.14453 0.00525
238.00000 1.05005 -0.05834 -0.02491
238.10000 0.88007 -0.24006 0.03010
238.20000 1.05603 0.02371 0.03503
238.30000 0.99254 0.34310 -0.00929
238.40000 0.99691 0.31977 -0.00437
238.50000 0.97662 0.36547 -0.03517
238.60000 0.97580 0.12340 0.01768
238.70000 1.02203 0.04484 0.03060
238.80000 0.95225 -0.14888 -0.01524
238.90000 1.04673 -0.24366 0.02243
239.00000 0.93034 -0.18379 -0.02736
239.10000 0.98337 -0.00861 0.01565
239.20000 1.00429 0.02560 0.01991
239.30000 1.01414 0.12050 -0.02055
239.40000 0.97230 0.20762 0.00465
239.50000 1.05821 0.10307 -0.03789
239.60000 1.00087 -0.04961 0.04057
239.70000 1.00688 -0.18890 0.02241
239.80000 1.06955 -0.15739 -0.03729
239.90000 0.91048 -0.12888 0.05990
240.00000 1.02476 -0.12413 0.02134
240.10000 1.02978 -0.25688 -0.03228
240.20000 0.91770 -0.28147 -0.00846
240.30000 1.00709 -0.24265 0.04715
240.40000 1.04035 -0.03132 0.04032
240.50000 0.96581 -0.04471 0.04304
240.60000 1.01725 -0.11298 -0.03034
240.70000 0.97906 -0.09493 -0.01529
240.80000 1.10362 -0.02754 0.00116
240.90000 0.92447 -0.05249 0.01554
241.00000 1.02845 -0.18346 -0.00846
241.10000 0.93502 -0.34833 0.02986
241.20000 1.06543 -0.36315 -0.02863
241.30000 0.97190 -0.34624 -0.01285
241.40000 0.96271 -0.13092 0.03062
241.50000 1.02629 -0.00155 -0.04381
241.60000 0.93441 -0.00800 -0.02437
241.70000 1.00932 0.00970 0.05924
241.80000 1.01786 0.12423 -0.00600
241.90000 0.99155 0.04933 0.00032
242.00000 1.04835 -0.05151 0.00716
242.10000 0.94953 -0.23350 -0.04472
242.20000 1.01381 -0.40172 -0.01571
242.30000 0.95723 -0.16374 0.02260
242.40000 1.04389 -0.08651 -0.03970
242.50000 1.03560 -0.24442 0.06043
242.60000 0.96324 -0.19228 -0.00332
242.70000 0.94373 0.02924 -0.02095
242.80000 1.01727 0.13346 0.00594
242.90000 0.99201 0.17653 0.00866
243.00000 1.01879 -0.04585 0.03182
243.10000 0.98998 -0.09579 0.02933
243.20000 0.99103 -0.02080 -0.05828
243.30000 1.00383 0.34996 -0.02836
243.40000 0.98603 0.41441 0.01663
243.50000 0.97634 0.25979 -0.03016
243.60000 1.02105 -0.07416 0.03668
243.70000 1.06735 -0.11867 -0.05437
243.80000 0.97921 0.04146 -0.04153
243.90000 0.92357 0.21407 -0.01046
244.00000 1.01450 0.34186 0.06667
244.10000 1.02881 0.18355 -0.02066
244.20000 0.99053 -0.08403 0.01131
244.30000 1.04496 -0.18639 0.02516
244.40000 1.01945 -0.01962 -0.03635
244.50000 1.04289 0.04366 0.05239
244.60000 0.97702 0.06908 -0.00214
244.70000 1.00077 0.07905 -0.02274
244.80000 0.96183 0.11341 0.00623
244.90000 0.97989 0.10354 -0.00926
245.00000 1.07705 -0.04213 0.01083
245.10000 0.94924 -0.16950 -0.02925
245.20000 1.02775 -0.34861 0.01347
245.30000 1.02941 -0.06437 0.04680
245.40000 0.99270 0.28076 -0.04618
245.50000 0.99634 0.28997 0.02604
245.60000 1.03563 -0.00672 0.01309
245.70000 0.99653 -0.16171 -0.02793
245.80000 0.99790 -0.24058 -0.05258
245.90000 0.99686 -0.03457 0.01882
246.00000 1.04178 0.16809 0.06517
246.10000 0.97843 0.00772 0.00014
246.20000 1.02550 -0.16665 0.05033
246.30000 0.93818 -0.07347 -0.02759
246.40000 0.98302 0.03040 0.03315
246.50000 0.96269 -0.02757 -0.00987
246.60000 1.02633 -0.06164 -0.02464
246.70000 1.05067 -0.00960 -0.01650
246.80000 0.92508 -0.01871 0.04643
246.90000 1.03782 0.10769 -0.00031
247.00000 0.92913 0.10865 0.01800
247.10000 1.05456 0.11599 0.00484
247.20000 0.96989 0.05213 0.05529
247.30000 1.06376 0.08060 -0.04750
247.40000 0.94387 -0.01314 0.01124
247.50000 0.98866 0.09743 0.02199
247.60000 1.06857 -0.00321 -0.00792
247.70000 0.90425 -0.02383 0.06439
247.80000 1.03183 -0.06951 -0.00825
247.90000 1.05583 -0.06917 -0.04723
248.00000 0.95486 -0.09728 0.03237
248.10000 1.01367 -0.24102 -0.02369
248.20000 0.96174 -0.15978 -0.04876
248.30000 1.03664 0.03239 0.01511
248.40000 0.93408 0.16076 -0.07110
248.50000 1.02377 0.09904 -0.03607
248.60000 1.01698 -0.17574 0.04294
248.70000 0.97632 -0.23802 0.03052
248.80000 0.95991 0.07587 -0.06908
248.90000 1.02263 0.09841 -0.02540
249.00000 0.99973 -0.19667 -0.00619
249.10000 0.97592 -0.38557 0.00230
249.20000 1.06774 -0.19912 -0.01016
249.30000 0.95506 -0.02242 -0.04200
249.40000 1.01974 0.14461 -0.03415
249.50000 0.97170 0.07588 0.02244
249.60000 1.01856 0.02672 0.03936
249.70000 1.01135 -0.05341 -0.03507
249.80000 0.98216 -0.13678 0.03742
249.90000 1.00683 -0.10521 -0.05393
250.00000 0.99089 -0.14547 -0.00861
250.10000 0.99724 -0.05894 -0.06241
250.20000 1.04826 0.04111 0.04727
250.30000 0.97767 0.11161 -0.00524
250.40000 1.06127 -0.01787 0.00225
250.50000 0.96510 0.00155 -0.02872
250.60000 1.01988 -0.07096 0.02089
250.70000 0.95293 0.04929 0.05303
250.80000 0.98746 0.03804 -0.00930
250.90000 1.02878 0.26061 -0.03418
251.00000 0.97455 0.07969 -0.00383
251.10000 1.09708 -0.24855 0.00432
251.20000 0.89078 -0.11607 -0.02281
251.30000 1.03789 0.07683 -0.00975
251.40000 0.95975 0.24503 -0.00530
251.50000 1.01368 0.15017 0.02287
251.60000 1.01461 -0.01580 0.01096
251.70000 0.99917 -0.14344 -0.01428
251.80000 0.98825 -0.10576 -0.00500
251.90000 1.00192 0.03223 0.06557
252.00000 1.10708 -0.16398 -0.04607
252.10000 0.95080 -0.21975 0.02151
252.20000 1.07009 -0.15479 -0.03145
252.30000 0.93428 0.01834 0.01285
252.40000 1.02006 -0.10878 0.06363
252.50000 1.01542 -0.25935 0.00082
252.60000 0.94171 -0.18676 -0.02955
252.70000 1.02820 -0.08060 0.05349
252.80000 1.00244 -0.09229 -0.03731
252.90000 0.99129 -0.07936 -0.01568
253.00000 1.00638 0.20172 0.01177
253.10000 0.99863 0.27327 0.01146
253.20000 0.99874 0.24880 0.01052
253.30000 1.01898 0.31887 -0.03335
253.40000 1.01436 0.13392 -0.04166
253.50000 0.99406 -0.05591 0.06168
253.60000 1.04425 -0.14639 0.04551
253.70000 0.93639 0.04065 -0.04682
253.80000 1.06494 0.17384 0.10456
253.90000 0.97990 0.13436 0.03742
254.00000 0.99667 0.04803 -0.05027
254.10000 1.03859 -0.07550 -0.02488
254.20000 0.97632 -0.05393 0.04236
254.30000 1.03956 -0.05214 0.07019
254.40000 0.96749 0.00152 -0.05276
254.50000 1.02191 -0.01430 0.02721
254.60000 0.99283 -0.04107 -0.01311
254.70000 0.97137 -0.05395 0.02368
254.80000 1.02402 0.11781 -0.02969
254.90000 0.96736 0.02186 0.02760
255.00000 1.04989 -0.13588 0.00653
255.10000 0.95838 -0.25435 -0.02978
255.20000 1.00922 -0.01611 -0.04079
255.30000 1.00357 0.13249 -0.02511
255.40000 1.00348 0.07175 0.04226
255.50000 0.96180 -0.07985 -0.01270
255.60000 0.96935 -0.02142 -0.01858
255.70000 1.01000 0.07194 -0.03616
255.80000 0.98046 -0.02951 0.00360
255.90000 0.92340 -0.02291 0.08289
256.00000 1.03776 0.06833 -0.04578
256.10000 0.99546 0.02333 -0.03575
256.20000 0.95754 0.00580 0.04471
256.30000 1.04648 -0.01434 0.05280
256.40000 0.95972 -0.14291 -0.01770
256.50000 1.00341 -0.19136 0.03756
256.60000 1.05160 -0.16621 -0.00561
256.70000 0.97813 -0.11416 -0.02769
256.80000 1.01754 -0.01553 -0.00302
256.90000 1.01570 0.05599 0.01388
257.00000 1.05717 0.18614 -0.03428
257.10000 0.92157 0.13367 0.01387
257.20000 1.07734 -0.05150 0.00955
257.30000 1.03884 -0.10931 -0.00673
257.40000 0.94594 -0.14414 0.01415
257.50000 1.07889 -0.12237 -0.03005
257.60000 1.04357 -0.14286 0.04164
257.70000 0.94812 -0.13726 0.00003
257.80000 1.00202 -0.10945 0.03048
257.90000 1.02416 -0.05998 -0.00245
258.00000 1.05968 0.02142 0.02113
258.10000 0.95258 0.02995 -0.03110
258.20000 1.10881 -0.09716 0.07253
258.30000 0.93650 -0.10036 0.05871
258.40000 1.02168 0.11935 -0.02516
258.50000 1.03602 0.29167 0.00095
258.60000 0.96319 0.37645 -0.01933
258.70000 1.07575 0.34833 -0.04360
258.80000 0.94770 0.13192 0.01905
258.90000 1.05784 0.04116 0.04319
259.00000 1.03810 -0.00674 0.00195
259.10000 0.98071 -0.02808 -0.03310
259.20000 1.02927 0.00786 0.01756
259.30000 1.00776 -0.00123 -0.01445
259.40000 0.98630 -0.18091 -0.02880
259.50000 0.98206 -0.29864 0.02646
259.60000 0.97592 -0.14545 0.01213
259.70000 1.09081 0.00522 0.02622
259.80000 0.95943 0.26191 -0.00288
259.90000 1.02847 0.27554 -0.02274
260.00000 1.04802 0.27399 0.01338
260.10000 1.00618 0.31705 0.00803
260.20000 0.98742 0.35380 0.02421
260.30000 0.97800 0.25031 -0.05478
260.40000 0.98161 0.09785 0.04837
260.50000 1.02120 0.06360 -0.03346
260.60000 0.95052 0.00549 -0.03569
260.70000 1.07106 0.10306 0.00897
260.80000 0.98274 0.06378 0.02057
260.90000 0.95632 -0.10212 0.05468
261.00000 0.98838 -0.02989 -0.02913
261.10000 1.05306 0.03596 -0.06377
261.20000 0.92719 -0.09990 0.02178
261.30000 1.02381 -0.06969 -0.04884
261.40000 0.96878 -0.03665 0.03585
261.50000 1.00305 -0.02540 -0.00103
261.60000 1.00117 0.05862 -0.03534
261.70000 0.96522 -0.00263 0.00489
261.80000 1.00641 -0.17640 0.09117
261.90000 1.03628 -0.17694 -0.01991
262.00000 1.01643 -0.01393 0.00817
262.10000 1.02236 0.21578 0.03959
262.20000 0.98994 0.26903 -0.01069
262.30000 1.01844 0.09072 -0.00361
262.40000 1.00902 -0.02934 -0.02505
262.50000 1.04637 0.00195 0.05526
262.60000 1.01092 0.04196 0.05221
262.70000 1.01363 0.01289 -0.02979
262.80000 0.98545 0.08505 0.02184
262.90000 0.95879 0.03780 0.03267
263.00000 0.99103 0.08698 0.03029
263.10000 1.03502 -0.09738 -0.02494
263.20000 0.99266 -0.08475 -0.02609
263.30000 0.95848 0.02488 0.04569
263.40000 0.95683 -0.04652 0.07110
263.50000 1.03864 0.05535 -0.06243
263.60000 0.97078 0.32944 -0.02093
263.70000 0.97805 0.21452 0.04926
263.80000 0.98699 0.05412 0.06641
263.90000 1.02954 -0.07307 -0.03375
264.00000 0.98627 0.03343 0.00118
264.10000 1.03998 0.09473 -0.01057
264.20000 0.98798 0.13584 -0.02659
264.30000 0.99534 0.11122 0.00838
264.40000 0.94385 0.16599 0.01451
264.50000 1.01638 0.14231 0.01523
264.60000 1.00550 0.01901 0.02046
264.70000 0.98557 -0.05686 0.02678
264.80000 0.99635 0.06487 -0.04033
264.90000 1.01327 0.18297 0.00087
265.00000 1.00832 0.05651 -0.02265
265.10000 0.98291 -0.10256 0.05730
265.20000 0.94823 0.01924 -0.02254
265.30000 0.95284 0.05752 0.00026
265.40000 1.05187 -0.05481 0.04622
265.50000 1.00531 -0.01464 -0.05852
265.60000 1.02429 0.03257 0.02448
265.70000 0.95284 0.16025 -0.01752
265.80000 0.99095 0.09773 0.00776
265.90000 1.06662 -0.03492 0.07574
266.00000 0.94113 -0.20343 -0.01117
266.10000 1.08037 -0.16476 -0.04863
266.20000 0.98029 -0.02214 0.04833
266.30000 0.97915 -0.09544 0.02061
266.40000 1.02601 -0.21458 -0.01884
266.50000 1.00534 -0.26356 -0.02381
266.60000 0.92777 -0.24108 0.06464
266.70000 1.06205 0.04529 0.00783
266.80000 0.98931 0.29054 0.01460
266.90000 1.03938 0.30831 -0.01405
267.00000 1.02212 0.32557 -0.01923
267.10000 0.92407 -0.03000 -0.00290
267.20000 1.01576 -0.24476 -0.07771
267.30000 1.01240 -0.08431 0.07238
267.40000 0.97676 0.02515 0.02422
267.50000 1.06731 -0.03677 -0.02091
267.60000 0.91654 -0.14960 0.00584
267.70000 0.97583 -0.26161 0.06837
267.80000 1.02077 -0.42580 -0.01589
267.90000 0.96619 -0.26788 -0.01252
268.00000 1.07814 -0.08163 -0.05784
268.10000 0.97963 0.14253 0.05503
268.20000 1.04875 0.12597 0.02144
268.30000 0.95487 -0.08570 -0.05218
268.40000 1.03117 -0.07279 -0.00685
268.50000 1.00481 0.05743 0.07605
268.60000 0.96592 0.10687 0.01338
268.70000 1.00738 0.04001 -0.07694
268.80000 0.97971 0.02029 -0.02714
268.90000 1.04188 0.00415 0.00039
269.00000 0.89289 -0.00847 0.00705
269.10000 1.05991 -0.11427 -0.06769
269.20000 0.99018 0.03777 -0.00750
269.30000 1.05095 0.22291 0.04690
269.40000 0.94314 0.09056 0.03812
269.50000 1.08791 -0.05649 -0.02368
269.60000 0.91773 -0.02677 -0.02346
269.70000 0.99198 0.07057 -0.03217
269.80000 1.01102 0.00128 0.02338
269.90000 1.01182 -0.05891 0.01529
270.00000 1.01595 -0.02106 -0.03954
270.10000 1.02893 0.02666 -0.01596
270.20000 0.95312 -0.12535 0.01367
270.30000 1.02452 -0.14634 0.02375
270.40000 1.00518 -0.19095 0.02019
270.50000 0.96600 0.14367 -0.01972
270.60000 1.08686 0.23430 -0.06141
270.70000 0.92544 0.27569 0.06326
270.80000 1.01537 0.22647 0.03122
270.90000 1.01086 0.00541 0.00310
271.00000 0.95795 -0.15914 -0.00354
271.10000 1.00257 -0.21636 -0.00902
271.20000 1.02255 -0.21411 -0.00920
271.30000 0.96973 -0.13527 0.03482
271.40000 1.04124 -0.15835 0.01304
271.50000 0.98927 -0.02262 0.01548
271.60000 1.04016 0.04500 -0.01994
271.70000 1.01603 0.13961 0.03799
271.80000 0.99794 0.06660 0.01481
271.90000 1.01861 -0.14206 0.00791
272.00000 0.92316 -0.25972 -0.02413
272.10000 0.97452 -0.24353 0.06584
272.20000 0.99366 -0.01267 0.03826
272.30000 0.92280 -0.10354 -0.01506
272.40000 1.01486 -0.18227 -0.06316
272.50000 0.98585 0.05928 -0.02948
272.60000 0.99782 0.31216 0.09047
272.70000 0.99074 0.30924 0.01804
272.80000 0.96143 0.17171 -0.09238
272.90000 1.03934 0.03141 0.01467
273.00000 0.95372 0.06293 0.06660
273.10000 1.00199 0.10721 -0.02064
273.20000 1.02264 -0.02340 0.01414
273.30000 0.98018 -0.05857 0.01147
273.40000 1.05633 -0.09881 -0.03887
273.50000 1.02186 -0.36568 -0.00629
273.60000 0.97136 -0.31578 0.02926
273.70000 0.98940 -0.11534 0.01116
273.80000 0.98370 -0.06022 0.00203
273.90000 1.03679 0.07193 0.04468
274.00000 0.91167 0.12051 0.03713
274.10000 1.04855 0.10891 -0.00401
274.20000 0.96413 0.01860 0.01144
274.30000 1.02197 0.04711 -0.07346
274.40000 0.96579 0.12504 -0.03289
274.50000 0.98004 0.15644 -0.02978
274.60000 1.06827 0.22133 0.04078
274.70000 0.94567 0.23787 0.02724
274.80000 0.97850 0.02792 0.02046
274.90000 1.01666 -0.16174 -0.01423
275.00000 0.96797 -0.30106 -0.02031
275.10000 1.02977 -0.19569 -0.06649
275.20000 0.97762 -0.02123 0.02421
275.30000 0.95706 0.04409 0.00279
275.40000 1.03984 -0.11856 0.03029
275.50000 1.00698 -0.16682 -0.02856
275.60000 0.97464 -0.12960 -0.01692
275.70000 1.02130 -0.19728 -0.02238
275.80000 0.89945 -0.03008 0.04729
275.90000 1.01208 0.18691 0.06137
276.00000 0.99320 0.16275 -0.05494
276.10000 0.98604 0.16780 0.00670
276.20000 0.97627 0.05781 0.05194
276.30000 1.02997 -0.10287 -0.00154
276.40000 1.03208 -0.14046 -0.06367
276.50000 0.92666 0.00709 -0.00682
276.60000 0.99415 0.01907 -0.00474
276.70000 0.99947 0.22912 0.03793
276.80000 0.98805 0.09523 0.00587
276.90000 1.06816 -0.06736 0.02924
277.00000 1.06407 -0.05758 0.00700
277.10000 0.91800 -0.06764 0.00337
277.20000 1.09335 -0.04279 0.02114
277.30000 0.91500 0.04846 0.02758
277.40000 1.08109 0.05894 0.05760
277.50000 1.04815 0.00249 0.00764
277.60000 0.91862 -0.10403 -0.05061
277.70000 1.03963 -0.08733 -0.01485
277.80000 1.07499 -0.09353 0.01855
277.90000 0.90198 -0.13390 0.01553
278.00000 1.07134 -0.14655 0.01184
278.10000 0.97200 -0.06811 -0.02267
278.20000 0.99310 -0.07208 0.02979
278.30000 1.03872 -0.09344 0.02535
278.40000 0.94127 0.01245 -0.00224
278.50000 1.05595 0.03276 -0.00264
278.60000 0.94846 -0.11702 -0.00077
278.70000 0.98777 -0.14903 -0.01177
278.80000 1.02236 -0.05606 -0.00092
278.90000 0.92648 0.01385 0.01058
279.00000 1.05196 -0.06778 -0.01085
279.10000 1.09799 -0.04180 0.00239
279.20000 0.91664 0.10228 -0.06141
279.30000 1.00369 0.11040 0.05769
279.40000 1.00085 -0.04136 0.01692
279.50000 0.96239 -0.33476 -0.03342
279.60000 1.04384 -0.43165 -0.00993
279.70000 1.01475 -0.25957 0.00346
279.80000 0.98893 -0.02307 -0.02513
279.90000 1.02054 0.12123 0.06334
280.00000 0.95304 0.21148 -0.00493
280.10000 1.01760 0.01608 -0.03390
280.20000 0.97698 -0.22853 0.01506
280.30000 1.02113 -0.30291 0.03848
280.40000 0.93474 -0.06065 -0.00173
280.50000 1.06611 0.07372 -0.08456
280.60000 0.93108 -0.04306 0.01686
280.70000 0.99809 0.10300 0.05480
280.80000 1.02864 0.05132 -0.05572
280.90000 0.95502 -0.27670 0.01126
281.00000 0.95954 -0.36016 0.01268
281.10000 1.07085 -0.21228 -0.02192
281.20000 0.97090 0.10341 0.01040
281.30000 1.00212 0.25369 -0.01774
281.40000 1.00493 0.19098 -0.04630
281.50000 0.96369 0.08085 -0.00101
281.60000 1.00207 0.11201 0.05582
281.70000 1.04558 -0.11245 0.03252
281.80000 1.01827 -0.05393 -0.07297
281.90000 1.04345 0.02739 -0.02254
282.00000 0.99650 0.09090 0.06105
282.10000 0.96232 0.18472 -0.00018
282.20000 1.00623 0.20092 -0.01328
282.30000 0.93382 0.22477 -0.00061
282.40000 1.05499 0.00454 -0.00544
282.50000 0.94035 -0.11665 -0.05680
282.60000 1.04520 -0.05990 0.01436
282.70000 0.96037 0.14695 0.06263
282.80000 1.00276 0.20681 0.02259
282.90000 1.01462 0.36659 -0.06820
283.00000 1.00150 0.30417 0.01103
283.10000 1.01091 0.21272 -0.00821
283.20000 1.09909 0.14663 0.03071
283.30000 0.90060 0.16849 -0.05755
283.40000 1.02990 0.04469 0.02853
283.50000 1.05270 0.07466 -0.01159
283.60000 0.98667 -0.02862 -0.04373
283.70000 0.97928 -0.13439 0.09266
283.80000 1.02766 0.05349 0.00949
283.90000 0.98097 0.26868 -0.09852
284.00000 0.96314 0.26832 0.00781
284.10000 0.98275 0.29779 0.04256
284.20000 1.01723 0.23987 0.03860
284.30000 0.95812 0.19417 -0.00885
284.40000 0.97493 0.11530 -0.00319
284.50000 1.03514 -0.04456 0.03516
284.60000 0.99645 -0.11675 0.01023
284.70000 1.08975 -0.04420 -0.01271
284.80000 0.90369 -0.01962 0.01263
284.90000 1.03132 -0.29106 0.01364
285.00000 1.01906 -0.26381 -0.01154
285.10000 1.02420 -0.25680 -0.01444
285.20000 0.94695 -0.13980 -0.00800
285.30000 1.07547 0.01063 0.00807
285.40000 0.93800 0.19513 -0.02691
285.50000 1.00893 0.02405 0.02249
285.60000 1.05407 -0.17670 0.01843
285.70000 0.94137 -0.15781 -0.01216
285.80000 1.04086 -0.08936 0.01926
285.90000 0.98580 -0.02919 -0.03176
286.00000 0.99624 -0.04777 0.00119
286.10000 0.97015 -0.27310 0.06874
286.20000 0.98525 -0.33518 -0.01486
286.30000 0.93548 -0.11354 -0.03529
286.40000 1.06937 -0.01595 -0.00179
286.50000 0.92811 -0.06076 -0.01562
286.60000 1.05341 -0.10411 0.01756
286.70000 0.97202 -0.24286 -0.01745
286.80000 1.02191 -0.18204 -0.02806
286.90000 1.10006 0.00391 0.01189
287.00000 0.91933 0.14289 0.03479
287.10000 1.07962 0.22887 -0.01847
287.20000 0.98048 0.06834 -0.03460
287.30000 1.00339 0.15928 0.03265
287.40000 0.96451 0.17727 0.05374
287.50000 1.02608 0.24364 0.02929
287.60000 0.99701 0.01424 -0.10591
287.70000 0.91389 -0.26661 0.01506
287.80000 0.99426 -0.25388 0.05823
287.90000 1.06646 -0.21172 0.02639
288.00000 0.96009 -0.11994 -0.05869
288.10000 1.05829 -0.05640 -0.02657
288.20000 0.94849 0.00694 0.02293
288.30000 1.01931 0.02394 -0.05263
288.40000 0.95148 -0.15429 0.05279
288.50000 1.06845 -0.24412 0.04850
288.60000 0.99205 -0.07050 -0.00896
288.70000 0.97392 0.18422 0.00571
288.80000 0.98563 0.19503 0.04301
288.90000 0.99238 0.19389 0.00815
289.00000 1.05289 0.16737 -0.07071
289.10000 0.93018 0.20419 0.03385
289.20000 1.00231 0.23281 0.00819
289.30000 1.04223 0.11862 0.01645
289.40000 0.93104 0.04479 0.05883
289.50000 1.07701 -0.03153 -0.00752
289.60000 0.94609 0.02008 0.00930
289.70000 0.96387 0.20445 -0.04321
289.80000 0.97139 0.18044 -0.02614
289.90000 1.00373 0.19962 0.06399
290.00000 0.95870 0.20330 -0.05377
290.10000 1.02661 -0.02472 0.00574
290.20000 0.99861 -0.18783 0.08285
290.30000 0.99375 -0.08554 -0.03880
290.40000 0.98157 0.11077 0.00756
290.50000 1.08608 0.36255 0.00193
290.60000 0.96187 0.38797 0.00507
290.70000 1.02150 0.16691 -0.02207
290.80000 0.99471 -0.16391 -0.00315
290.90000 0.99805 -0.27119 0.02914
291.00000 1.04212 -0.08410 -0.01044
291.10000 1.02616 -0.02138 -0.04572
291.20000 0.96890 0.08996 0.02572
291.30000 1.11440 0.01705 -0.01913
291.40000 0.93432 -0.06701 0.00199
291.50000 1.02412 -0.15838 -0.02391
291.60000 0.96292 -0.17146 0.00252
291.70000 1.00444 -0.14594 0.00535
291.80000 1.03475 -0.11210 0.01956
291.90000 0.93408 -0.05053 -0.04639
292.00000 1.06356 0.13616 0.03487
292.10000 0.96117 0.27948 -0.00538
292.20000 1.03661 0.29374 0.00514
292.30000 0.94208 0.13183 -0.04544
292.40000 1.00544 0.01025 0.00378
292.50000 1.04499 -0.10185 -0.01897
292.60000 0.95545 0.02942 0.00606
292.70000 1.03852 0.12399 -0.06825
292.80000 0.92512 0.05553 -0.04081
292.90000 1.02539 -0.06698 0.02645
293.00000 1.01334 -0.23500 0.04999
293.10000 0.99479 -0.40844 -0.00783
293.20000 1.04000 -0.36944 -0.02546
293.30000 0.98434 -0.02375 -0.03032
293.40000 1.08455 0.18135 0.01908
293.50000 0.93684 0.13931 -0.00505
293.60000 1.00843 0.06946 -0.02719
293.70000 1.00380 0.11338 0.02889
293.80000 0.97582 0.12616 0.05440
293.90000 1.04422 0.13049 0.01831
294.00000 0.98037 0.00607 0.01658
294.10000 1.04667 -0.25145 0.04284
294.20000 0.98927 -0.27169 -0.02516
294.30000 0.96298 -0.06957 0.03627
294.40000 0.99963 0.12898 0.03438
294.50000 1.05302 0.02747 -0.02979
294.60000 0.92146 -0.19234 -0.05028
294.70000 1.04780 -0.22612 0.02796
294.80000 1.00185 -0.17841 0.03797
294.90000 0.97844 -0.03363 -0.02570
295.00000 0.97129 0.17748 -0.00601
295.10000 1.04320 0.32281 -0.01460
295.20000 0.98322 0.02940 0.04842
295.30000 0.96833 -0.16723 0.01318
295.40000 1.09601 -0.14198 -0.05545
295.50000 0.97025 0.04024 -0.03654
295.60000 0.97043 0.11431 -0.00463
295.70000 1.03725 0.23307 -0.00771
295.80000 0.95613 0.04348 -0.03852
295.90000 1.02685 0.01722 0.06461
296.00000 1.02860 0.01435 0.05596
296.10000 1.00364 0.02762 -0.06842
296.20000 0.98823 -0.11180 0.02512
296.30000 0.99252 0.01946 -0.03786
296.40000 1.05836 0.23548 0.01140
296.50000 0.97404 0.22639 0.02062
296.60000 0.99246 0.08853 -0.03255
296.70000 1.03349 0.06502 -0.01505
296.80000 0.97935 0.04353 -0.01261
296.90000 0.98266 0.06143 0.06804
297.00000 1.04235 -0.05426 -0.05099
297.10000 1.00690 0.02192 0.00479
297.20000 1.03799 0.07942 0.06456
297.30000 0.98405 -0.14866 -0.02095
297.40000 1.02603 -0.27287 -0.05121
297.50000 0.99225 -0.16260 0.06189
297.60000 0.98141 0.10975 0.04488
297.70000 0.99191 0.12927 -0.00793
297.80000 0.92698 -0.09336 0.06970
297.90000 0.94632 -0.06770 -0.01029
298.00000 1.02051 -0.03685 -0.04381
298.10000 1.02538 -0.00893 0.01150
298.20000 1.01653 0.01665 0.07244
298.30000 1.06866 0.03318 0.00587
298.40000 0.95477 0.13366 -0.01333
298.50000 1.01785 0.10741 0.02829
298.60000 0.97859 -0.08977 0.04856
298.70000 1.01892 -0.14750 -0.00843
298.80000 1.03453 0.06354 0.01235
298.90000 0.99866 0.32149 0.01424
299.00000 0.96776 0.22775 -0.02355
299.10000 1.03188 -0.03376 0.01827
299.20000 0.96544 -0.11525 0.00077
299.30000 0.98862 -0.16269 -0.01915
299.40000 0.99783 0.01597 0.00165
299.50000 1.03711 -0.07039 0.01979
299.60000 0.98688 -0.07135 -0.00280
299.70000 0.98964 0.03647 -0.06667
299.80000 1.01165 -0.11199 0.00362
299.90000 1.01085 -0.04584 0.03413
300.00000 0.99068 0.02504 -0.04145
300.10000 0.99746 -0.01449 0.04638
300.20000 1.03120 0.03029 0.01913
300.30000 0.98297 0.01047 -0.02397
300.40000 0.97214 0.08094 -0.01008
300.50000 1.00203 0.11556 0.08135
300.60000 0.91516 -0.08557 -0.04282
300.70000 1.09066 -0.08363 0.02990
300.80000 0.92700 -0.17457 0.02254
300.90000 1.08025 -0.06774 0.00536
301.00000 0.94325 0.04534 -0.03224
301.10000 0.92508 0.09755 -0.00734
301.20000 1.05080 0.11870 0.07058
301.30000 0.89513 -0.14681 -0.03269
301.40000 0.98681 -0.07701 0.00147
301.50000 1.02187 0.08118 -0.02642
301.60000 1.02310 -0.07372 0.04343
301.70000 0.98899 -0.19431 -0.03026
301.80000 0.97464 -0.12999 -0.02579
301.90000 0.95759 -0.03998 0.01068
302.00000 1.02941 -0.13950 -0.03388
302.10000 0.93794 -0.11302 0.03903
302.20000 1.03458 -0.21031 0.03306
302.30000 0.97728 0.04445 0.00799
302.40000 1.03112 0.29277 -0.06562
302.50000 0.91666 0.11856 0.04789
302.60000 1.00863 -0.01815 0.01286
302.70000 1.01495 -0.05266 -0.04812
302.80000 0.97344 -0.24208 0.02915
302.90000 1.01366 -0.36103 -0.00054
303.00000 1.01002 -0.23300 -0.03793
303.10000 1.00704 -0.08374 0.00703
303.20000 0.91217 -0.12615 0.01979
303.30000 1.02990 -0.10837 0.00318
303.40000 0.98046 -0.16846 -0.00069
303.50000 0.98608 -0.05463 0.00829
303.60000 0.97117 0.13885 0.09605
303.70000 1.03329 0.01012 -0.04193
303.80000 0.98181 -0.06975 0.01229
303.90000 0.98856 -0.15841 0.01205
304.00000 1.02164 -0.05049 0.02794
304.10000 1.02326 0.01822 -0.00765
304.20000 0.94934 0.00317 0.00850
304.30000 0.99887 -0.12307 0.00052
304.40000 1.02869 -0.20844 -0.00474
304.50000 0.98411 -0.14582 -0.01506
304.60000 0.98712 -0.03816 0.05722
304.70000 1.01909 0.06055 -0.06583
304.80000 1.01656 0.09369 0.05675
304.90000 1.00370 0.09398 0.04822
305.00000 1.00761 0.22422 -0.05259
305.10000 0.99221 0.19380 0.03473
305.20000 1.00769 0.17236 0.04948
305.30000 1.03549 0.12323 -0.00402
305.40000 0.98733 0.06540 -0.00742
305.50000 0.99288 0.04345 0.01973
305.60000 1.06857 -0.07656 0.00315
305.70000 0.86475 -0.21723 0.01125
305.80000 1.16284 0.02471 -0.02170
305.90000 0.94268 -0.02679 -0.03325
306.00000 1.02383 -0.09935 0.01611
306.10000 1.02153 -0.05280 0.02771
306.20000 0.99307 -0.03619 -0.04710
306.30000 1.01642 -0.05749 0.00350
306.40000 0.93079 0.02513 0.04143
306.50000 1.10002 0.11993 -0.06922
306.60000 0.94237 0.15552 -0.02992
306.70000 1.02139 0.14096 0.08322
306.80000 0.97490 0.07018 -0.02915
306.90000 1.01536 0.09717 -0.06175
307.00000 0.98128 -0.13097 0.00735
307.10000 0.95613 -0.14115 0.02326
307.20000 1.01910 0.12223 -0.11427
307.30000 1.01697 -0.02611 -0.04360
307.40000 1.03464 -0.17778 0.03402
307.50000 0.95287 -0.16385 0.04155
307.60000 1.05229 -0.02954 0.00858
307.70000 0.93627 0.03361 -0.02770
307.80000 1.10876 0.05923 0.00211
307.90000 1.01127 0.05043 -0.04687
308.00000 0.93522 -0.17876 -0.04452
308.10000 1.09018 -0.40994 0.07667
308.20000 0.98358 -0.23808 -0.04726
308.30000 0.99794 0.12926 0.01717
308.40000 1.05604 0.16591 -0.02402
308.50000 0.98352 0.05652 0.05770
308.60000 1.00486 -0.19754 0.00861
308.70000 0.94037 -0.08480 -0.04951
308.80000 1.01955 0.07279 -0.04057
308.90000 0.95288 0.09894 0.04949
309.00000 1.00704 0.07729 -0.03341
309.10000 0.99024 -0.07106 -0.00690
309.20000 0.96794 -0.17692 0.02479
309.30000 1.05988 -0.12759 0.02695
309.40000 0.91311 -0.03527 -0.08519
309.50000 1.03261 0.02252 0.06249
309.60000 0.98839 -0.05425 0.06561
309.70000 0.93519 -0.11965 -0.07212
309.80000 1.05075 0.01941 0.00472
309.90000 0.95739 0.21568 -0.02063
310.00000 0.98668 0.19018 0.05797
310.10000 1.06554 0.18138 -0.00724
310.20000 0.94487 0.12951 0.00804
310.30000 1.07513 -0.08374 -0.04844
310.40000 0.91089 -0.02279 0.01701
310.50000 1.03437 -0.09555 0.03927
310.60000 0.96753 -0.04585 0.01187
310.70000 1.01433 -0.17196 0.02821
310.80000 0.96194 -0.12945 0.04522
310.90000 1.00881 -0.02359 -0.03094
311.00000 1.01478 -0.08624 -0.01228
311.10000 0.95752 -0.10093 -0.00862
311.20000 1.01124 -0.15101 0.02080
311.30000 0.95265 -0.11109 -0.01602
311.40000 0.97371 0.00512 0.00335
311.50000 1.03023 -0.04629 0.02498
311.60000 0.99075 0.02390 0.02259
311.70000 0.98881 0.01526 -0.05815
311.80000 0.94929 0.18713 0.00375
311.90000 1.06037 0.29248 0.05753
312.00000 0.92531 0.22653 -0.04306
312.10000 1.04972 0.02320 -0.02840
312.20000 0.93443 -0.10820 0.00772
312.30000 1.00963 -0.14690 0.03167
312.40000 0.97616 -0.09461 0.00678
312.50000 0.97327 0.02286 -0.00431
312.60000 1.00085 0.08025 0.01071
312.70000 0.98425 0.01906 -0.00767
312.80000 0.97723 0.16655 -0.04951
312.90000 0.99476 0.17813 0.03285
313.00000 0.99241 0.06770 0.00885
313.10000 0.96796 -0.09263 -0.07985
313.20000 1.00648 -0.23243 0.09024
313.30000 0.94247 -0.26967 -0.00784
313.40000 1.01650 -0.32736 -0.10129
313.50000 0.98834 -0.15417 -0.05621
313.60000 0.98788 0.03176 0.06815
313.70000 0.98953 0.03554 0.03961
313.80000 1.00021 -0.04110 -0.04719
313.90000 1.04183 -0.17585 0.00103
314.00000 1.01327 -0.15255 0.06114
314.10000 0.98170 -0.31452 -0.03092
314.20000 1.03973 -0.22879 0.02138
314.30000 0.97271 -0.00993 -0.01862
314.40000 1.04846 0.08966 -0.01332
314.50000 0.99252 0.07294 -0.00894
314.60000 1.02328 0.05119 0.02646
314.70000 0.95984 -0.06499 0.01812
314.80000 1.06961 0.03749 -0.01455
314.90000 0.96289 0.12094 0.01106
315.00000 1.02699 0.30255 0.03507
315.10000 0.96811 0.17642 -0.03699
315.20000 0.99632 -0.03141 0.02565
315.30000 1.07044 -0.01943 -0.05514
315.40000 1.03607 -0.05173 0.02123
315.50000 1.00055 -0.11739 0.03081
315.60000 1.05270 -0.05813 -0.03016
315.70000 0.95768 -0.13179 -0.05971
315.80000 1.06809 -0.17253 -0.01477
315.90000 1.02440 -0.09631 0.01414
316.00000 0.96946 -0.11535 -0.01257
316.10000 1.00651 0.01540 -0.00227
316.20000 0.96304 0.14556 -0.03501
316.30000 1.03178 0.13916 -0.03804
316.40000 0.97308 0.05202 0.03917
316.50000 1.04424 -0.02985 -0.03446
316.60000 1.02587 0.15768 -0.04592
316.70000 0.99302 0.18129 0.00357
316.80000 1.00557 0.03503 0.06993
316.90000 1.04111 -0.14104 0.00191
317.00000 0.93733 -0.10519 -0.04736
317.10000 0.98270 -0.05018 0.01308
317.20000 1.02905 -0.04214 0.06383
317.30000 0.95291 0.05218 -0.04099
317.40000 1.01383 0.26317 -0.02378
317.50000 0.95478 0.19544 -0.02824
317.60000 0.97138 0.20208 0.01443
317.70000 1.00343 0.25510 -0.03295
317.80000 0.93558 0.16379 -0.04574
317.90000 1.03493 -0.08631 0.02052
318.00000 1.01278 -0.26875 -0.04861
318.10000 0.95577 -0.10875 0.03468
318.20000 1.04715 0.22745 0.09835
318.30000 0.99226 0.14549 -0.06917
318.40000 1.05213 0.08820 -0.05867
318.50000 1.02222 -0.03628 0.00629
318.60000 0.98709 -0.09700 0.07852
318.70000 1.03997 0.09608 -0.06403
318.80000 1.01447 0.10229 0.03096
318.90000 1.00941 -0.01773 -0.00591
319.00000 0.94940 -0.20289 -0.04564
319.10000 1.10246 -0.05517 0.01513
319.20000 0.95589 0.19941 0.04594
319.30000 1.02078 0.25217 0.02704
319.40000 1.03256 0.22281 0.00552
319.50000 0.97622 0.24054 -0.01188
319.60000 1.01395 0.21053 0.02594
319.70000 1.00650 0.19625 0.03339
319.80000 0.99916 0.13210 -0.08047
319.90000 1.01401 -0.05848 -0.02439
320.00000 0.95757 0.09472 0.03325
320.10000 1.00953 0.25461 -0.03686
320.20000 0.90501 0.12090 0.02887
320.30000 1.08201 0.01088 -0.02314
320.40000 1.00051 0.17905 -0.01301
320.50000 0.95400 0.35131 -0.00785
320.60000 1.03239 0.33939 0.00218
320.70000 0.94857 0.08776 0.00874
320.80000 0.98255 0.02250 0.03626
320.90000 1.03267 0.13765 0.03088
321.00000 0.95729 0.22811 0.02532
321.10000 1.04128 0.23667 -0.02915
321.20000 0.98807 0.08850 0.02452
321.30000 0.97008 0.12196 -0.01991
321.40000 0.98721 0.31052 0.00970
321.50000 1.01871 0.48729 -0.02835
321.60000 0.99380 0.38843 -0.03198
321.70000 1.00125 0.18073 0.03278
321.80000 0.98541 -0.04774 0.06791
321.90000 0.96831 -0.08181 -0.06369
322.00000 1.02009 0.04624 -0.03257
322.10000 1.01284 0.00195 0.02155
322.20000 0.95591 -0.14703 0.08150
322.30000 0.97957 -0.13610 -0.00197
322.40000 0.98484 -0.09278 -0.01350
322.50000 1.07504 -0.02979 0.02076
322.60000 0.91335 0.07367 -0.01678
322.70000 1.04176 0.24558 -0.01416
322.80000 1.02395 0.24728 -0.01935
322.90000 0.99247 0.08714 0.03751
323.00000 1.00281 0.08869 0.05120
323.10000 1.01662 0.05332 -0.06973
323.20000 1.02234 -0.16073 -0.00546
323.30000 0.99947 -0.17672 0.04420
323.40000 0.99795 -0.03358 -0.04725
323.50000 0.99833 0.15104 0.01837
323.60000 1.02458 0.27478 -0.01752
323.70000 0.99965 0.23052 -0.01611
323.80000 0.98628 -0.02398 0.00940
323.90000 0.99770 -0.05017 0.01910
324.00000 0.99163 -0.02460 -0.00980
324.10000 0.99346 -0.05778 -0.01796
324.20000 0.98652 -0.12611 0.01330
324.30000 1.01357 -0.07403 0.00314
324.40000 0.98457 0.02007 -0.04892
324.50000 0.99137 -0.10498 -0.00822
324.60000 0.95772 -0.24999 0.02124
324.70000 1.03477 -0.26229 -0.05649
324.80000 1.02046 -0.08854 -0.02439
324.90000 0.91550 0.00247 0.04192
325.00000 1.13872 0.11303 -0.01671
325.10000 0.96462 0.13308 -0.03789
325.20000 0.98460 -0.06091 -0.02099
325.30000 1.07501 -0.16281 0.03563
325.40000 0.94907 0.20496 0.07206
325.50000 1.03171 0.24124 -0.06213
325.60000 1.06810 0.01533 -0.06012
325.70000 0.96189 -0.32850 0.04304
325.80000 1.00225 -0.29270 0.01630
325.90000 0.97530 -0.01885 -0.05140
326.00000 1.00364 0.04914 -0.00838
326.10000 0.95447 0.07041 -0.06519
326.20000 1.00835 0.06857 -0.00113
326.30000 1.02245 0.09720 0.04400
326.40000 0.96181 -0.07093 0.03298
326.50000 0.96301 0.06252 0.02534
326.60000 1.00933 0.22603 -0.04634
326.70000 1.01467 0.10438 -0.01870
326.80000 1.02013 -0.13523 0.01682
326.90000 1.02339 -0.25847 -0.00465
327.00000 0.99670 -0.10100 -0.03968
327.10000 1.00160 0.03952 -0.02667
327.20000 1.04728 0.19323 0.03601
327.30000 0.96776 -0.00831 0.04122
327.40000 0.97972 -0.19574 -0.07274
327.50000 1.06533 -0.06141 -0.04079
327.60000 0.96072 -0.05806 -0.01632
327.70000 0.93968 -0.24802 0.02399
327.80000 1.10088 -0.28386 0.00625
327.90000 0.94860 -0.28076 -0.01763
328.00000 0.99838 -0.19675 -0.02338
328.10000 0.98090 -0.18740 0.04976
328.20000 0.98739 -0.13418 -0.00566
328.30000 1.01826 -0.10134 -0.05697
328.40000 0.99688 -0.23144 -0.00848
328.50000 1.01473 -0.13833 0.05648
328.60000 0.93176 -0.03140 0.01282
328.70000 1.02701 0.00269 0.00444
328.80000 1.01811 0.01470 -0.01797
328.90000 0.95443 0.05964 0.04334
329.00000 1.03900 -0.06068 -0.01804
329.10000 1.04561 -0.24473 0.06258
329.20000 0.94798 -0.20332 -0.00343
329.30000 1.01687 0.10048 -0.00829
329.40000 1.00224 0.21478 -0.02720
329.50000 1.01694 0.19471 -0.01464
329.60000 1.01467 0.12073 0.00378
329.70000 0.97791 0.07899 0.05553
329.80000 1.01462 0.04223 0.00150
329.90000 1.03452 -0.02286 0.01935
330.00000 0.91371 -0.06278 -0.03410
330.10000 1.06745 -0.17568 -0.02989
330.20000 0.99143 -0.12094 0.05273
330.30000 0.96995 -0.16214 0.03892
330.40000 0.94408 -0.17006 -0.02679
330.50000 1.06972 -0.20257 0.01060
330.60000 1.02763 -0.17591 0.01582
330.70000 0.91097 -0.12460 0.02728
330.80000 1.02815 -0.05267 -0.04798
330.90000 0.99673 0.06661 0.04220
331.00000 0.98667 -0.01088 -0.00957
331.10000 0.98900 -0.05987 0.00104
331.20000 0.94333 -0.00679 0.00242
331.30000 0.98641 -0.15145 -0.01946
331.40000 1.01019 -0.16261 -0.02753
331.50000 0.98952 -0.20416 0.00955
331.60000 0.96604 -0.06440 0.01586
331.70000 0.96774 0.13140 -0.07543
331.80000 1.01222 0.36805 0.00898
331.90000 0.96741 0.29375 0.08009
332.00000 1.06667 0.08740 -0.02081
332.10000 0.97990 0.04678 -0.06175
332.20000 1.00414 0.02791 0.06887
332.30000 1.03765 0.00188 0.03718
332.40000 0.92546 -0.06757 -0.07205
332.50000 0.99169 0.13534 0.04311
332.60000 1.02789 0.26281 0.03001
332.70000 0.93961 0.26343 -0.02434
332.80000 0.98159 0.09768 0.01776
332.90000 1.05290 -0.17271 0.03791
333.00000 0.96614 -0.27796 -0.01811
333.10000 1.05622 -0.05957 0.00440
333.20000 0.90217 0.11357 0.07187
333.30000 1.03608 0.04990 -0.03580
333.40000 0.97659 0.03080 -0.07250
333.50000 1.02491 -0.11683 0.03928
333.60000 0.97985 -0.13353 -0.01105
333.70000 0.98347 0.13661 0.04011
333.80000 0.99866 0.27888 -0.01334
333.90000 1.01499 -0.03632 0.00320
334.00000 0.97976 -0.16417 0.01347
334.10000 1.03852 -0.07446 -0.02755
334.20000 0.99363 -0.06134 0.03899
334.30000 0.97813 -0.10986 0.06249
334.40000 0.98641 0.07269 -0.01209
334.50000 0.94738 0.07630 -0.04591
334.60000 1.05702 0.12712 0.04250
334.70000 0.93909 0.33493 -0.04293
334.80000 1.07711 0.13236 -0.02410
334.90000 0.98730 -0.09972 0.04914
335.00000 0.96195 -0.29680 0.03432
335.10000 1.01923 -0.03757 -0.03844
335.20000 0.99155 -0.01549 0.03696
335.30000 1.06456 -0.04456 -0.04564
335.40000 1.01804 -0.18164 0.02796
335.50000 0.98422 -0.24355 0.02219
335.60000 1.03606 -0.15729 -0.03350
335.70000 0.99181 -0.10261 0.03294
335.80000 1.03321 -0.20718 0.00055
335.90000 1.02765 -0.29301 0.00435
336.00000 1.00866 0.06774 -0.04423
336.10000 1.01819 0.18498 0.00772
336.20000 1.00034 -0.01571 -0.04856
336.30000 0.97790 -0.02807 0.04134
336.40000 1.01359 0.06057 0.01599
336.50000 1.00136 0.12042 0.01061
336.60000 1.02150 0.01565 0.00164
336.70000 0.96696 0.00099 -0.00578
336.80000 1.00322 -0.10191 0.03867
336.90000 0.99998 -0.16814 0.03221
337.00000 1.01427 -0.03125 -0.08472
337.10000 0.93277 0.04426 0.00770
337.20000 1.01200 0.05970 0.07967
337.30000 0.97149 0.05710 -0.02291
337.40000 0.92803 -0.04631 -0.00979
337.50000 1.07657 -0.00180 -0.03703
337.60000 1.02219 0.12317 0.02642
337.70000 1.00238 0.21133 -0.01318
337.80000 1.02772 0.24376 -0.00658
337.90000 0.97216 0.02800 -0.04441
338.00000 1.01897 -0.17405 0.02048
338.10000 0.94194 -0.30995 0.00532
338.20000 1.01717 -0.15597 0.00556
338.30000 0.99250 -0.00505 0.00504
338.40000 0.98662 0.04413 -0.04396
338.50000 0.95380 0.05560 -0.02018
338.60000 1.01285 -0.06299 0.04219
338.70000 1.02011 -0.09617 0.04952
338.80000 0.97106 -0.15533 -0.03448
338.90000 0.98914 -0.08549 -0.01713
339.00000 1.03298 0.02742 0.05637
339.10000 0.92337 -0.00737 -0.05542
339.20000 1.00188 0.01929 -0.06354
339.30000 1.03021 0.12497 0.03242
339.40000 0.93470 0.02625 -0.00374
339.50000 1.04157 0.18965 -0.02218
339.60000 0.96613 0.11990 0.06045
339.70000 0.99942 -0.00093 0.00552
339.80000 0.99075 0.01340 0.01663
339.90000 0.96511 0.03753 0.02544
340.00000 1.02386 -0.04241 0.00355
340.10000 1.05580 0.05478 -0.01773
340.20000 0.99424 0.08733 -0.00707
340.30000 1.01257 -0.10478 -0.00115
340.40000 0.97087 -0.22069 0.00986
340.50000 0.99170 -0.31519 -0.02122
340.60000 1.00387 -0.04079 0.03793
340.70000 0.98810 -0.06326 -0.03491
340.80000 1.05841 -0.10785 -0.05400
340.90000 0.96543 -0.15042 0.03668
341.00000 1.00556 -0.11521 -0.00434
341.10000 0.97114 -0.13032 0.02982
341.20000 0.99970 0.02750 -0.03918
341.30000 0.98570 0.21135 -0.04971
341.40000 1.05903 0.28924 0.04174
341.50000 0.95332 0.16714 0.01968
341.60000 0.94647 -0.04764 -0.03545
341.70000 1.11991 -0.31455 0.06862
341.80000 0.93461 -0.28637 -0.02174
341.90000 1.01368 -0.09405 -0.03748
342.00000 0.96562 0.23189 0.04545
342.10000 1.00463 0.33579 -0.03770
342.20000 1.01547 0.25295 -0.05671
342.30000 0.99164 -0.03284 0.02453
342.40000 0.97906 -0.25433 0.03025
342.50000 0.99117 -0.20048 -0.05603
342.60000 1.04016 -0.12810 0.01527
342.70000 0.94692 -0.08186 -0.00070
342.80000 1.05664 0.01182 -0.00521
342.90000 0.92675 0.31508 0.04169
343.00000 1.06550 0.20216 -0.05101
343.10000 0.97072 0.07243 0.01952
343.20000 0.96474 -0.17458 0.01442
343.30000 1.06409 -0.21848 -0.02612
343.40000 0.95196 -0.09915 0.04210
343.50000 1.03604 -0.00003 0.02143
343.60000 1.03183 0.01104 -0.02327
343.70000 0.99325 -0.12132 -0.06343
343.80000 0.95855 0.05577 0.04938
343.90000 0.98483 0.28258 0.02747
344.00000 1.01929 0.29081 0.00693
344.10000 0.95011 0.14678 -0.05138
344.20000 1.05135 -0.12613 -0.01386
344.30000 0.92167 -0.05989 0.04293
344.40000 1.00730 0.17924 -0.01033
344.50000 0.94407 0.14150 -0.03285
344.60000 1.02127 0.04876 0.01484
344.70000 0.98646 -0.03324 0.01830
344.80000 1.05691 -0.10678 0.02249
344.90000 0.95571 0.01766 0.02061
345.00000 1.08758 0.00131 -0.00754
345.10000 0.90281 -0.00994 -0.02872
345.20000 1.01188 -0.10237 -0.06113
345.30000 1.01825 -0.16363 -0.01168
345.40000 0.99889 -0.24918 0.03090
345.50000 1.00670 -0.01492 -0.00087
345.60000 0.98800 0.08777 0.02185
345.70000 1.04021 -0.04020 -0.01127
345.80000 0.97137 0.01193 -0.01134
345.90000 1.03564 0.12587 -0.02754
346.00000 1.04645 0.14298 -0.01628
346.10000 0.93351 0.05650 0.04027
346.20000 1.06658 -0.02547 -0.00610
346.30000 0.94926 -0.11016 -0.00957
346.40000 1.12704 0.11804 -0.00690
346.50000 0.96043 0.28332 -0.01108
346.60000 0.98699 -0.06567 -0.00960
346.70000 1.02662 -0.16849 0.00562
346.80000 1.00918 -0.11178 -0.01877
346.90000 0.96889 -0.02482 0.03946
347.00000 0.99437 -0.06204 -0.00662
347.10000 1.04642 0.00584 0.01824
347.20000 0.99057 -0.19548 0.00099
347.30000 0.96524 -0.24005 -0.02104
347.40000 1.01388 -0.07012 0.04864
347.50000 1.01063 0.12050 0.00289
347.60000 0.98536 -0.02434 0.02056
347.70000 1.02680 0.05566 -0.01318
347.80000 1.01182 -0.05640 0.00120
347.90000 0.93523 -0.06123 -0.00100
348.00000 1.04550 0.03285 0.00537
348.10000 0.99034 -0.03923 -0.01506
348.20000 0.93293 -0.10659 0.01140
348.30000 1.08411 -0.04334 0.03095
348.40000 0.92819 -0.10977 -0.00922
348.50000 1.00573 -0.03977 -0.05812
348.60000 1.01217 0.15046 0.01601
348.70000 1.05078 0.06668 0.04778
348.80000 0.91584 -0.08175 -0.02206
348.90000 1.06947 -0.05605 -0.01168
349.00000 0.95657 -0.01989 -0.04318
349.10000 1.01060 0.17198 0.00834
349.20000 1.02982 0.18648 0.03717
349.30000 1.03707 -0.01026 0.02864
349.40000 0.96472 -0.15340 0.06350
349.50000 1.04515 -0.26613 -0.00708
349.60000 0.99326 -0.26269 -0.01019
349.70000 1.02393 -0.13638 0.05303
349.80000 0.99360 0.15617 -0.02881
349.90000 1.00378 0.06870 -0.06478
350.00000 1.04423 -0.04269 -0.00309
350.10000 0.97119 0.10788 0.03186
350.20000 0.98907 0.00738 0.01850
350.30000 1.02141 -0.13192 0.01733
350.40000 0.97296 -0.26025 -0.00843
350.50000 1.02937 -0.05958 0.00669
350.60000 0.95013 0.28628 0.01004
350.70000 0.97600 0.38500 0.00211
350.80000 0.95909 0.34178 0.04451
350.90000 1.02191 0.29355 -0.05989
351.00000 1.04416 0.24807 0.00687
351.10000 0.95012 0.09455 0.05867
351.20000 1.07754 0.05702 -0.04850
351.30000 0.97873 0.01769 -0.04439
351.40000 0.99133 0.17207 0.06655
351.50000 1.02363 0.26533 -0.00590
351.60000 0.98571 0.10474 0.00643
351.70000 0.95892 -0.18160 0.04602
351.80000 0.99840 -0.35243 -0.01726
351.90000 1.03630 -0.18469 -0.00260
352.00000 0.96725 -0.02854 0.00428
352.10000 0.97796 0.07199 -0.02419
352.20000 1.04788 -0.00624 -0.04093
352.30000 0.87547 -0.09084 0.01086
352.40000 1.07049 -0.10979 0.03460
352.50000 0.95094 -0.13283 -0.03650
352.60000 1.03457 -0.10759 -0.04798
352.70000 0.98288 -0.21288 0.03194
352.80000 0.94347 -0.22465 0.04388
352.90000 1.06752 -0.02310 -0.03725
353.00000 0.94444 0.07211 -0.05625
353.10000 1.06722 0.20265 0.03731
353.20000 0.96866 0.25973 -0.02176
353.30000 0.98145 0.09139 -0.05073
353.40000 1.06505 -0.02364 0.00360
353.50000 0.92935 -0.11214 -0.00356
353.60000 1.01805 -0.25752 0.00894
353.70000 0.99368 -0.24107 0.05519
353.80000 0.94255 -0.07050 0.01915
353.90000 1.07971 -0.06152 -0.03604
354.00000 0.97036 -0.01291 -0.01610
354.10000 0.93017 0.19216 0.04732
354.20000 0.97201 0.42586 0.06730
354.30000 0.98926 0.27004 -0.02682
354.40000 1.01689 0.18122 -0.02274
354.50000 1.00186 -0.02677 0.03171
354.60000 0.96721 -0.04134 -0.01018
354.70000 1.01133 -0.05685 -0.01863
354.80000 0.99410 -0.07239 -0.01683
354.90000 1.00233 -0.07267 -0.01608
355.00000 1.02004 -0.03009 -0.01270
355.10000 0.94064 0.03979 -0.00657
355.20000 1.00682 0.16408 -0.01392
355.30000 0.98734 0.15815 -0.00976
355.40000 1.04205 -0.00228 -0.01355
355.50000 0.93654 -0.04775 -0.03653
355.60000 1.04030 -0.10262 0.06107
355.70000 0.95215 -0.10223 0.04263
355.80000 0.93478 -0.10242 -0.01732
355.90000 1.01436 -0.12174 0.00658
356.00000 1.00704 -0.07708 -0.01181
356.10000 1.02663 -0.16446 -0.02980
356.20000 1.02353 -0.13220 -0.02490
356.30000 0.99254 -0.14130 0.02710
356.40000 0.97719 0.05941 0.03173
356.50000 0.94118 0.11919 -0.10220
356.60000 0.98746 0.03119 -0.02568
356.70000 0.95801 -0.01798 0.06623
356.80000 0.96355 -0.07076 -0.01317
356.90000 1.06704 -0.02454 -0.05679
357.00000 0.92202 0.08428 0.05448
357.10000 1.01715 0.10499 0.00936
357.20000 0.99784 0.08149 -0.01655
357.30000 1.00890 0.11858 0.04305
357.40000 1.00040 0.02406 -0.01331
357.50000 1.00177 -0.01478 -0.04621
357.60000 1.02263 -0.03891 0.00487
357.70000 0.93295 -0.01883 -0.03218
357.80000 1.02162 -0.07273 -0.02496
357.90000 0.97280 -0.13291 0.02028
358.00000 0.95516 -0.17388 -0.03225
358.10000 1.04377 -0.18862 0.01916
358.20000 1.03892 0.02726 0.06066
358.30000 0.99573 -0.00749 0.04134
358.40000 0.97189 0.14944 0.01460
358.50000 0.98002 0.28623 -0.01485
358.60000 1.04797 0.13103 -0.01499
358.70000 0.97279 0.02684 -0.02606
358.80000 1.09605 0.12413 0.01165
358.90000 0.97297 0.03118 0.03609
359.00000 1.01410 0.04577 -0.01319
359.10000 1.00767 0.06569 -0.00942
359.20000 0.94959 -0.00038 -0.03339
359.30000 1.00792 0.00960 0.01279
359.40000 1.02854 0.09548 -0.05702
359.50000 1.04306 0.02542 -0.05615
359.60000 0.98226 -0.00834 0.05613
359.70000 0.99041 -0.12030 0.08687
359.80000 0.96947 -0.08153 0.01485
359.90000 1.05802 -0.02310 -0.01124
360.00000 1.00895 0.15454 0.01787
360.10000 0.97408 0.12276 -0.00252
360.20000 1.00840 -0.13858 -0.02157
360.30000 1.03923 -0.08150 0.04989
360.40000 0.95284 0.09099 0.03138
360.50000 1.00969 -0.16335 0.01008
360.60000 1.02877 -0.08044 -0.00731
360.70000 0.98227 0.07051 -0.00672
360.80000 0.95553 0.06168 -0.00234
360.90000 1.04641 0.14734 -0.00527
361.00000 0.97584 0.09661 -0.05438
361.10000 1.05195 -0.08540 -0.01366
361.20000 0.96703 -0.19961 0.09488
361.30000 1.03841 -0.09476 0.04987
361.40000 1.02980 0.00611 -0.02450
361.50000 0.98785 0.03524 -0.01313
361.60000 1.03351 0.04533 0.03023
361.70000 0.98011 0.13509 -0.01224
361.80000 1.03014 0.37792 0.00520
361.90000 0.89546 0.25391 -0.00280
362.00000 1.08251 -0.07109 0.00409
362.10000 0.97708 -0.31504 -0.02345
362.20000 1.03902 -0.11431 0.08632
362.30000 0.99238 0.11608 0.01009
362.40000 0.96176 0.14287 -0.00208
362.50000 1.06551 -0.06076 -0.01093
362.60000 0.95609 -0.11218 0.00353
362.70000 1.01449 0.14445 0.00269
362.80000 1.00831 0.12523 0.02725
362.90000 0.96011 -0.13588 0.00787
363.00000 1.02374 -0.19028 0.00768
363.10000 0.94355 -0.07837 -0.01280
363.20000 1.00722 0.04895 0.01906
363.30000 1.01812 0.10155 0.02351
363.40000 1.00265 0.04232 -0.03441
363.50000 0.99655 0.04212 -0.06016
363.60000 1.04113 0.05171 0.08859
363.70000 1.02153 0.12016 -0.02122
363.80000 1.05001 -0.02909 -0.05014
363.90000 0.96360 -0.04712 0.02173
364.00000 1.00123 -0.06792 0.01881
364.10000 0.99809 -0.26962 -0.07432
364.20000 0.99011 -0.27147 0.00368
364.30000 0.95868 -0.12659 0.01545
364.40000 1.04254 -0.05100 -0.02376
364.50000 0.93434 -0.04227 0.01901
364.60000 1.04517 0.10875 -0.00656
364.70000 1.01282 0.23846 0.07206
364.80000 0.88522 0.29860 -0.05652
364.90000 1.09550 0.21567 -0.02358
365.00000 0.98219 -0.03047 0.04568
365.10000 1.04569 -0.14710 0.02797
365.20000 0.98772 -0.10792 0.01111
365.30000 0.94986 -0.31289 0.01220
365.40000 1.02611 -0.38851 -0.02135
365.50000 1.00598 -0.34734 0.05910
365.60000 1.00210 -0.17921 -0.06800
365.70000 0.96377 -0.15965 -0.00675
365.80000 0.97910 0.03912 0.03413
365.90000 0.96167 0.16711 -0.01393
366.00000 1.02215 0.03272 -0.07215
366.10000 0.99484 -0.13577 0.00982
366.20000 0.97332 -0.13856 0.09157
366.30000 1.07135 -0.14904 0.02638
366.40000 0.93696 -0.09378 0.00446
366.50000 1.02557 0.00918 -0.02676
366.60000 1.04501 0.17743 -0.00240
366.70000 0.96526 0.15328 0.09761
366.80000 0.97643 -0.02373 0.00540
366.90000 1.05061 -0.28284 -0.04346
367.00000 0.91594 -0.33985 -0.07125
367.10000 1.07845 -0.15256 0.03150
367.20000 0.97651 0.13042 0.08573
367.30000 1.05520 0.26484 -0.07064
367.40000 1.01157 0.36227 0.03701
367.50000 1.01100 0.36582 0.03985
367.60000 0.97306 0.25130 -0.04918
367.70000 1.00957 0.12415 0.01529
367.80000 0.96738 0.01546 0.01466
367.90000 1.04893 -0.05598 -0.00413
368.00000 0.99500 -0.09381 -0.04109
368.10000 1.02741 -0.01209 -0.02435
368.20000 1.01060 0.16689 0.02478
368.30000 0.97487 0.16318 0.00541
368.40000 1.04541 -0.02791 -0.02561
368.50000 0.94428 -0.35866 0.00069
368.60000 1.04307 -0.36364 0.00007
368.70000 0.98978 -0.00889 -0.04323
368.80000 1.00824 0.21625 0.01756
368.90000 0.98542 0.13017 -0.00877
369.00000 1.00428 -0.09112 0.00927
369.10000 0.91111 -0.01890 -0.01010
369.20000 1.00711 0.03078 -0.00118
369.30000 1.04630 0.23650 0.02409
369.40000 0.92579 0.29010 0.01157
369.50000 1.02518 0.15516 -0.10079
369.60000 0.98814 0.00891 0.02232
369.70000 0.96115 0.24930 0.01749
369.80000 0.98641 0.36447 -0.07825
369.90000 1.00600 0.17683 0.02847
370.00000 0.96858 0.08372 0.01138
370.10000 1.03036 0.08181 0.00209
370.20000 0.98354 0.18765 0.02772
370.30000 0.98994 0.19677 -0.00770
370.40000 1.01415 0.27872 -0.01022
370.50000 0.95375 0.17268 -0.01920
370.60000 1.02822 0.04195 0.03479
370.70000 1.00358 -0.02151 0.00676
370.80000 0.95849 -0.03245 0.01499
370.90000 1.00326 -0.11793 0.01057
371.00000 1.01070 -0.12494 0.00961
371.10000 0.96484 0.20663 0.03645
371.20000 0.98908 0.14665 -0.00201
371.30000 0.94088 0.07720 -0.08863
371.40000 1.10802 -0.12317 -0.05839
371.50000 0.95657 -0.17248 0.01763
371.60000 0.97481 -0.03239 0.01313
371.70000 1.08259 0.02068 0.06263
371.80000 0.92259 -0.09378 0.00697
371.90000 1.01225 -0.02171 -0.07941
372.00000 1.05874 -0.10794 -0.02231
372.10000 0.92611 -0.21185 0.01950
372.20000 1.11107 -0.23884 0.02050
372.30000 0.90513 -0.09035 0.01432
372.40000 1.03473 -0.04368 0.06626
372.50000 0.97503 0.03466 -0.05823
372.60000 1.08998 0.13817 -0.02184
372.70000 0.85321 0.09883 0.00961
372.80000 1.10856 0.09049 0.00603
372.90000 1.00174 0.07364 -0.03044
373.00000 1.06761 -0.16805 0.06053
373.10000 0.98750 -0.20281 0.00569
373.20000 0.98751 -0.13881 0.00444
373.30000 1.00743 -0.06376 -0.06878
373.40000 0.98522 0.05570 0.01219
373.50000 0.99379 0.11478 0.01133
373.60000 1.03022 0.00060 0.00998
373.70000 0.99982 0.05776 0.01116
373.80000 0.99300 -0.04839 0.01317
373.90000 0.97681 -0.06972 -0.06800
374.00000 0.97729 -0.09874 0.03078
374.10000 0.99948 -0.17123 0.00200
374.20000 1.07331 -0.23582 -0.00548
374.30000 0.90526 -0.18508 -0.05055
374.40000 1.06886 0.11295 0.04113
374.50000 1.03586 0.19177 -0.00387
374.60000 0.95001 0.22118 -0.04586
374.70000 0.99926 0.03726 -0.00188
374.80000 1.00406 0.15423 0.02766
374.90000 0.97519 -0.02097 -0.00828
375.00000 0.95595 -0.01333 -0.07363
375.10000 1.05280 0.14479 0.00999
375.20000 0.94696 0.04816 0.02512
375.30000 0.97587 0.01255 0.02806
375.40000 1.09569 0.07638 0.02625
375.50000 0.94284 0.17599 -0.04954
375.60000 1.05296 0.12806 0.02029
375.70000 0.96424 0.08012 0.00089
375.80000 0.93415 0.06827 0.05545
375.90000 1.04038 0.00038 0.02187
376.00000 0.95645 0.02721 0.06178
376.10000 0.99718 -0.08715 -0.05627
376.20000 1.01131 -0.13915 -0.02791
376.30000 0.98174 -0.11485 0.01977
376.40000 1.02470 0.08920 0.00250
376.50000 0.95587 -0.07605 0.00549
376.60000 1.01285 -0.03907 0.00951
376.70000 0.95888 0.13462 -0.06209
376.80000 0.98371 0.13910 0.01464
376.90000 0.96724 0.06596 0.01692
377.00000 0.96737 0.09487 -0.02995
377.10000 1.03066 0.05607 0.01080
377.20000 1.00069 0.05788 -0.05149
377.30000 1.06789 -0.03186 0.02078
377.40000 0.99559 0.07117 0.01292
377.50000 0.98151 0.24197 -0.00641
377.60000 1.02831 0.16162 0.01818
377.70000 1.02692 -0.03404 -0.02921
377.80000 0.94145 -0.01769 -0.07031
377.90000 0.99841 0.11779 0.01259
378.00000 1.00045 0.01271 -0.00353
378.10000 0.95007 -0.14837 -0.03377
378.20000 1.04035 -0.18989 -0.02208
378.30000 0.98218 0.01995 0.03584
378.40000 1.02605 0.06216 -0.04208
378.50000 0.97314 0.03192 0.06583
378.60000 0.98483 0.07099 -0.00132
378.70000 0.99441 -0.07522 -0.00055
378.80000 0.94826 -0.18788 0.02400
378.90000 1.05345 -0.08986 0.00981
379.00000 0.93923 0.23237 -0.02585
379.10000 1.01881 0.18529 0.03607
379.20000 1.00069 0.12054 -0.01229
379.30000 0.98850 -0.00195 -0.01847
379.40000 0.99695 -0.16588 0.01416
379.50000 1.04551 -0.20307 -0.01641
379.60000 0.93704 -0.09847 0.00336
379.70000 1.01634 0.14333 -0.00965
379.80000 0.97771 0.24334 0.02399
379.90000 1.04538 0.14249 -0.02110
380.00000 0.94592 0.03156 -0.02778
380.10000 1.05314 -0.12766 0.04171
380.20000 1.03043 -0.07632 0.03756
380.30000 1.04721 0.15609 -0.01631
380.40000 0.95656 0.27420 -0.04880
380.50000 0.98116 0.22423 0.08189
380.60000 1.07766 0.10849 -0.01566
380.70000 0.93924 -0.27447 -0.01259
380.80000 1.05851 -0.56751 0.05364
380.90000 1.01764 -0.45875 0.04626
381.00000 0.95619 -0.34434 0.00193
381.10000 1.02292 -0.24180 -0.03923
381.20000 1.02777 -0.04505 -0.01941
381.30000 0.91479 0.01554 0.01052
381.40000 1.01971 -0.08957 0.04428
381.50000 1.00273 0.00359 -0.05564
381.60000 0.97928 0.06505 0.08610
381.70000 0.98829 0.08393 0.01317
381.80000 0.97068 -0.03279 -0.09650
381.90000 1.01128 -0.08678 0.03621
382.00000 0.96835 -0.17350 0.07350
382.10000 1.03514 -0.14709 -0.00274
382.20000 0.97888 0.05129 -0.09106
382.30000 1.07329 0.07570 0.01809
382.40000 0.92144 -0.03284 0.04160
382.50000 1.02733 0.09824 0.00833
382.60000 0.96283 0.15039 0.01632
382.70000 0.97958 0.12523 -0.05006
382.80000 1.02921 0.14222 0.02487
382.90000 0.98245 0.23419 0.01235
383.00000 0.96127 0.10841 -0.01961
383.10000 0.97452 -0.09510 -0.02864
383.20000 1.02956 -0.19792 0.02260
383.30000 0.97683 -0.08618 -0.00269
383.40000 1.02999 -0.08732 0.01941
383.50000 0.93102 -0.16609 -0.04089
383.60000 1.03675 -0.11715 0.06611
383.70000 1.04659 0.04438 -0.03117
383.80000 0.95381 0.12542 -0.00698
383.90000 1.05401 0.08683 0.00381
384.00000 0.94239 0.15182 0.02737
384.10000 1.06324 0.18785 -0.04434
384.20000 0.95041 0.21208 -0.00388
384.30000 0.99977 0.04955 0.04285
384.40000 0.98531 -0.07964 -0.00690
384.50000 1.03393 -0.05264 -0.06031
384.60000 0.94321 -0.11097 0.00598
384.70000 1.00547 -0.17194 0.01865
384.80000 1.00671 -0.17660 -0.05137
384.90000 0.92375 -0.05949 0.01544
385.00000 1.00805 -0.14462 -0.00467
385.10000 0.99137 -0.08522 0.03081
385.20000 0.92740 0.04348 -0.02704
385.30000 1.00731 0.07254 -0.00011
385.40000 1.06882 0.16994 0.01687
385.50000 0.94450 0.12684 -0.02547
385.60000 1.09018 0.12114 -0.05707
385.70000 0.89575 0.01504 0.03898
385.80000 1.10189 0.01038 -0.02749
385.90000 0.94014 -0.05858 -0.01097
386.00000 1.03354 -0.03173 0.01219
386.10000 1.00567 0.12518 0.00837
386.20000 0.98379 0.06857 -0.03465
386.30000 0.93375 -0.07950 0.01724
386.40000 1.07806 -0.09621 0.03780
386.50000 0.89447 0.06970 -0.02855
386.60000 1.02019 0.06327 0.00932
386.70000 1.01674 0.04145 0.03358
386.80000 0.94540 0.04822 -0.00297
386.90000 1.08156 0.11546 -0.03986
387.00000 0.96448 0.11385 0.00695
387.10000 0.99764 -0.09515 0.04277
387.20000 1.01482 -0.08154 0.04239
387.30000 1.01075 0.12989 -0.03121
387.40000 0.95099 0.16210 0.00729
387.50000 1.01031 0.05956 0.03528
387.60000 1.06184 0.35742 -0.02708
387.70000 0.98640 0.47830 -0.00573
387.80000 0.99753 0.26353 -0.00686
387.90000 0.99513 0.05881 0.04450
388.00000 1.04999 -0.14198 -0.04638
388.10000 0.92716 -0.12944 -0.05370
388.20000 0.97218 0.03909 0.01915
388.30000 0.99667 0.08542 0.01736
388.40000 1.02124 0.03377 -0.04037
388.50000 0.97786 -0.12782 -0.00247
388.60000 1.00509 -0.27924 0.05391
388.70000 1.01818 -0.27945 -0.03530
388.80000 0.99474 -0.08208 -0.04401
388.90000 0.99379 0.21952 0.05954
389.00000 1.11514 0.32854 -0.02409
389.10000 0.95202 0.14387 -0.07207
389.20000 1.04099 -0.04730 0.07813
389.30000 0.92368 -0.20517 0.02864
389.40000 1.02614 -0.22088 -0.03970
389.50000 1.00569 -0.09987 -0.07593
389.60000 1.01455 0.05553 0.05355
389.70000 0.98398 0.09437 0.06079
389.80000 1.03041 -0.10586 0.01890
389.90000 1.00589 -0.15818 -0.03296
390.00000 0.99393 0.03730 -0.05455
390.10000 1.01855 0.08517 0.05989
390.20000 1.04828 0.05678 -0.05255
390.30000 0.96431 0.15626 0.08389
390.40000 1.03977 0.17399 0.01795
390.50000 0.93227 -0.01499 -0.03753
390.60000 0.98987 -0.07824 -0.00982
390.70000 1.04085 0.04779 0.04253
390.80000 0.94627 0.16791 0.01901
390.90000 1.02988 0.04654 -0.00577
391.00000 0.97292 0.04610 0.03073
391.10000 1.06885 -0.08047 -0.03889
391.20000 0.94590 -0.18832 -0.02223
391.30000 0.98912 -0.06818 -0.02550
391.40000 0.99814 0.16536 -0.00499
391.50000 0.97189 0.11839 0.02874
391.60000 1.08758 0.00095 -0.03216
391.70000 0.93267 -0.12228 0.00031
391.80000 0.99607 0.02295 0.03352
391.90000 1.05388 0.22544 -0.03561
392.00000 0.94112 0.31857 -0.04867
392.10000 1.09532 -0.03141 0.02737
392.20000 1.01194 -0.02267 -0.01451
392.30000 0.93862 0.08391 -0.06362
392.40000 1.04716 0.05405 0.01537
392.50000 1.04113 0.11663 0.04900
392.60000 1.04986 0.19226 -0.04803
392.70000 0.99475 0.07296 -0.02211
392.80000 1.02288 -0.02451 0.00907
392.90000 1.05351 -0.05726 0.05120
393.00000 0.94870 0.02656 -0.01338
393.10000 1.04053 0.26942 -0.03668
393.20000 0.96692 0.36138 0.10359
393.30000 1.00888 0.27218 0.02821
393.40000 0.95535 0.30057 0.00753
393.50000 1.07594 0.38989 -0.01584
393.60000 0.90498 0.23254 -0.00361
393.70000 1.08656 -0.06450 -0.02183
393.80000 0.92971 -0.19431 -0.03511
393.90000 1.03555 -0.02205 0.01732
394.00000 1.01282 0.02359 -0.02010
394.10000 1.00825 -0.08284 0.05552
394.20000 1.03470 -0.18945 -0.02547
394.30000 0.91307 0.10447 -0.06211
394.40000 1.02197 0.29469 -0.01563
394.50000 1.00098 0.30760 -0.01224
394.60000 1.05725 0.15414 0.06166
394.70000 0.97886 -0.03437 -0.03657
394.80000 0.98997 0.04502 -0.00866
394.90000 1.04444 -0.00216 -0.02915
395.00000 0.92146 -0.02395 0.01559
395.10000 1.04557 -0.04247 -0.02279
395.20000 1.00585 -0.01251 0.00747
395.30000 1.00734 -0.02985 0.02856
395.40000 1.01810 -0.02735 0.02893
395.50000 1.01057 0.13403 -0.05150
395.60000 1.00303 0.28615 0.03217
395.70000 1.03183 0.34044 0.00814
395.80000 0.98554 0.23763 -0.03386
395.90000 0.98156 -0.06667 0.06259
396.00000 1.03776 -0.37476 0.04295
396.10000 0.95001 -0.19790 -0.05899
396.20000 1.00903 0.18310 -0.03018
396.30000 1.02852 0.31559 0.06095
396.40000 1.02466 0.23741 -0.04887
396.50000 1.01750 0.21338 0.02372
396.60000 0.97087 0.03388 0.02086
396.70000 1.01141 -0.11320 0.02195
396.80000 1.04107 -0.18213 -0.12027
396.90000 0.95380 -0.20988 0.05131
397.00000 0.95470 -0.21946 0.03206
397.10000 0.98675 -0.21167 -0.00693
397.20000 1.02325 0.02702 0.01110
397.30000 0.98183 0.08221 0.01411
397.40000 0.99251 0.18027 -0.02323
397.50000 0.98320 0.00579 -0.03930
397.60000 0.98460 -0.12428 0.00713
397.70000 1.00531 0.05103 0.07687
397.80000 0.95290 0.14477 -0.03054
397.90000 1.04166 -0.03247 -0.00825
398.00000 0.97683 -0.08045 -0.06075
398.10000 1.02077 -0.13581 0.01576
398.20000 0.90058 0.05707 0.04225
398.30000 1.00393 0.12029 0.04542
398.40000 1.03778 -0.02443 -0.06081
398.50000 0.97798 -0.07241 0.04728
398.60000 1.04552 -0.08566 0.05228
398.70000 0.95062 -0.19272 -0.02842
398.80000 1.03034 -0.22717 -0.03871
398.90000 0.96446 -0.18677 -0.02524
399.00000 1.01964 0.02204 0.06706
399.10000 0.94698 0.12431 -0.06078
399.20000 1.06354 0.16945 0.00340
399.30000 0.92889 0.14533 -0.01652
399.40000 1.02525 0.04541 -0.01515
399.50000 1.04022 -0.05424 -0.00248
399.60000 0.99043 -0.08506 0.02807
399.70000 0.98242 -0.12402 -0.04469
399.80000 0.98700 -0.01767 0.02459
399.90000 1.01359 0.01514 0.02255
400.00000 0.97166 -0.15856 -0.05953
400.10000 1.05615 -0.12929 0.03274
400.20000 1.04698 0.33985 0.03981
400.30000 0.95033 0.44619 -0.06253
400.40000 1.05223 0.06074 0.01750
400.50000 0.99453 -0.08845 0.02000
400.60000 1.01286 -0.05877 -0.04177
400.70000 1.01950 0.16323 -0.07346
400.80000 0.95898 0.31433 0.00440
400.90000 0.96669 0.29314 0.04449
401.00000 0.99903 0.00008 0.00619
401.10000 1.01286 -0.23073 0.00239
401.20000 1.00547 -0.03829 -0.02677
401.30000 0.97967 0.19654 -0.03671
401.40000 0.97827 0.01121 0.06508
401.50000 1.03953 -0.05137 -0.01146
401.60000 1.00864 -0.05817 -0.02504
401.70000 0.95269 -0.30520 0.05348
401.80000 1.01440 -0.34902 -0.00946
401.90000 1.04962 -0.12696 -0.01038
402.00000 0.94627 -0.15377 0.05514
402.10000 1.06654 -0.21452 -0.05412
402.20000 0.98106 -0.15060 -0.00259
402.30000 0.94671 -0.16594 -0.01969
402.40000 1.06399 -0.25169 0.07452
402.50000 0.86716 -0.16807 -0.03584
402.60000 1.12052 -0.03053 -0.00799
402.70000 0.99774 -0.06725 0.06357
402.80000 0.92240 0.00102 -0.04663
402.90000 1.03625 0.21537 0.01054
403.00000 0.96463 0.19306 0.03208
403.10000 1.05240 0.19728 0.03922
403.20000 0.97888 0.02680 0.02487
403.30000 1.01816 -0.11091 -0.03409
403.40000 1.00090 -0.24274 -0.06128
403.50000 1.02315 -0.17669 0.04420
403.60000 0.99659 -0.04183 -0.04184
403.70000 1.00759 -0.06732 -0.03388
403.80000 0.98061 0.04604 0.04518
403.90000 0.95292 -0.02206 0.03174
404.00000 1.05517 -0.15834 -0.01654
404.10000 0.95494 -0.13026 -0.00181
404.20000 1.02910 0.03194 -0.03380
404.30000 0.95346 0.10973 -0.04541
404.40000 1.00263 -0.05547 0.06745
404.50000 1.02695 -0.15238 -0.00204
404.60000 0.96049 -0.22003 -0.05932
404.70000 1.01849 -0.17018 0.04592
404.80000 1.05528 -0.02588 -0.03011
404.90000 1.03155 -0.02307 -0.01253
405.00000 0.97071 -0.20793 0.03261
405.10000 1.01910 -0.17464 0.05032
405.20000 1.00028 -0.02473 -0.03132
405.30000 0.93920 0.01535 -0.01401
405.40000 1.02922 -0.12326 0.05472
405.50000 0.96861 -0.30795 0.00122
405.60000 0.95337 -0.21568 -0.07018
405.70000 1.04754 -0.07515 -0.04566
405.80000 0.97922 -0.09477 0.02394
405.90000 1.03466 -0.02527 0.04324
406.00000 0.98935 0.09536 -0.05270
406.10000 0.97996 0.11702 0.06710
406.20000 0.97745 -0.03785 -0.04374
406.30000 1.03959 -0.03206 -0.06131
406.40000 0.94706 0.24229 0.03061
406.50000 1.01995 0.40253 0.01714
406.60000 1.00933 0.21801 -0.02940
406.70000 1.00941 0.08406 -0.05219
406.80000 1.02255 0.10081 0.04750
406.90000 0.96557 0.16412 0.02377
407.00000 0.95725 0.18988 -0.00800
407.10000 1.10592 0.12027 -0.00453
407.20000 0.96997 -0.07242 0.03685
407.30000 0.98296 -0.19493 -0.10236
407.40000 1.07901 0.00436 -0.01867
407.50000 0.96940 0.33980 0.03338
407.60000 1.06808 0.25883 0.02265
407.70000 0.93731 -0.04165 -0.02898
407.80000 0.95797 -0.14538 0.04836
407.90000 1.03027 -0.02628 -0.00348
408.00000 0.92827 0.02213 -0.04067
408.10000 1.04240 0.01379 -0.04341
408.20000 0.93132 -0.09245 0.01346
408.30000 1.09804 -0.18000 0.02753
408.40000 0.96817 0.02090 0.03728
408.50000 1.05593 -0.05659 0.04203
408.60000 0.96846 -0.14671 -0.02611
408.70000 1.08034 -0.19134 -0.01769
408.80000 0.96579 -0.30214 -0.04619
408.90000 0.98769 -0.08759 0.03236
409.00000 0.97596 0.12434 -0.00452
409.10000 1.03061 0.11245 -0.03995
409.20000 0.95247 0.12543 0.01405
409.30000 1.02098 0.09791 -0.05053
409.40000 0.98564 0.04999 -0.04957
409.50000 0.99356 -0.13190 0.05728
409.60000 0.98552 -0.32388 0.07969
409.70000 1.00457 -0.14655 -0.02675
409.80000 0.97108 0.10138 -0.03478
409.90000 0.94936 0.19922 -0.01373
410.00000 1.06648 0.24616 0.00670
410.10000 0.98585 0.04146 -0.06628
410.20000 0.95076 -0.20706 0.00112
410.30000 1.09505 -0.10106 0.07700
410.40000 0.85290 0.17792 -0.05085
410.50000 1.03735 0.09440 -0.00254
410.60000 0.97408 0.07221 0.04977
410.70000 1.03324 -0.06918 0.02322
410.80000 0.96959 -0.07389 -0.03985
410.90000 1.04903 -0.04520 0.02362
411.00000 1.00470 0.07949 -0.03815
411.10000 1.02784 0.04993 -0.05532
411.20000 0.95563 -0.00385 0.00833
411.30000 1.05665 0.07196 -0.01233
411.40000 0.94335 -0.06506 -0.02326
411.50000 1.02427 0.08792 0.03072
411.60000 0.98081 0.13945 -0.02954
411.70000 1.07135 0.05714 -0.03613
411.80000 0.98377 0.05464 0.00986
411.90000 1.01993 0.14959 0.06793
412.00000 1.01825 -0.04851 -0.05122
412.10000 0.99757 -0.25639 0.01289
412.20000 0.98897 -0.20373 0.01741
412.30000 1.07755 0.04639 -0.04659
412.40000 0.93839 0.07237 0.04822
412.50000 1.05934 -0.09583 -0.01314
412.60000 0.95200 -0.11000 -0.07083
412.70000 1.03816 0.04300 -0.03166
412.80000 0.95154 0.11912 0.03933
412.90000 1.06290 0.00232 0.04226
413.00000 0.94621 -0.06081 -0.04986
413.10000 1.02397 -0.04228 0.01177
413.20000 1.00562 -0.06423 0.04246
413.30000 0.97699 -0.12228 0.00004
413.40000 0.97369 -0.02872 0.01502
413.50000 0.95320 0.00726 -0.01642
413.60000 1.02258 0.18597 0.01609
413.70000 1.01470 0.17877 -0.01299
413.80000 0.96218 0.13331 0.00112
413.90000 1.00653 0.03078 -0.00840
414.00000 1.00824 -0.13541 -0.01186
414.10000 0.97283 -0.21729 0.04074
414.20000 1.00740 -0.16507 -0.02047
414.30000 1.01371 -0.04339 -0.01491
414.40000 1.04109 0.11725 -0.00942
414.50000 0.98258 0.12975 -0.02308
414.60000 0.96408 0.04994 -0.02827
414.70000 1.02196 -0.16419 -0.02415
414.80000 0.98722 -0.36085 -0.03335
414.90000 0.95081 -0.37872 0.06318
415.00000 1.00051 -0.16670 0.00904
415.10000 1.04499 0.21720 -0.02342
415.20000 0.91495 0.49842 -0.01308
415.30000 1.00086 0.40901 0.02093
415.40000 0.95047 0.07882 -0.02509
415.50000 0.94505 -0.19447 0.00248
415.60000 1.06877 -0.16764 0.00256
415.70000 0.98501 -0.09402 0.01438
415.80000 1.00495 -0.05041 -0.05613
415.90000 1.02642 0.01262 0.00667
416.00000 1.02694 -0.13287 0.02960
416.10000 0.96869 -0.15416 0.03998
416.20000 1.01822 -0.00298 -0.05102
416.30000 0.98931 -0.01318 0.04247
416.40000 1.02177 -0.11552 -0.00703
416.50000 0.95439 -0.05542 -0.02480
416.60000 1.02658 0.11954 0.01176
416.70000 0.95190 0.01464 -0.03471
416.80000 0.99000 -0.08091 0.02113
416.90000 0.92905 0.07456 -0.02015
417.00000 1.03646 0.00419 -0.00934
417.10000 1.03322 -0.03767 0.05392
417.20000 0.96400 -0.17780 0.00609
417.30000 0.98174 -0.11867 -0.04394
417.40000 0.97691 0.09178 0.01566
417.50000 1.03424 0.12994 0.00203
417.60000 1.02921 0.03832 0.00776
417.70000 0.94375 0.16059 0.04422
417.80000 0.99978 0.04728 0.02313
417.90000 1.01183 -0.03068 -0.02425
418.00000 0.95440 0.07858 -0.00243
418.10000 1.01869 0.06094 -0.00247
418.20000 1.01553 -0.02419 0.03999
418.30000 1.00516 0.07676 -0.03367
418.40000 1.00280 0.09233 0.01168
418.50000 0.95619 0.05339 -0.01383
418.60000 1.03729 -0.06995 0.02065
418.70000 1.03945 0.05008 0.00878
418.80000 0.97706 0.24244 0.01850
418.90000 1.00563 0.21791 -0.00395
419.00000 0.99952 -0.05958 0.05295
419.10000 0.91673 -0.01776 0.00657
419.20000 1.08157 0.15765 0.06290
419.30000 0.96178 -0.00065 -0.01262
419.40000 0.97074 -0.10712 -0.07084
419.50000 1.05719 -0.13551 0.00565
419.60000 0.96231 -0.07395 -0.00922
419.70000 1.05659 0.00123 -0.00181
419.80000 0.91920 -0.15650 -0.03101
419.90000 0.98484 -0.06921 0.01576
420.00000 1.04084 0.05743 0.02842
420.10000 0.96850 -0.00624 0.02447
420.20000 1.01902 -0.07936 0.03780
420.30000 1.00647 -0.18643 -0.00340
420.40000 1.02551 -0.22997 0.03557
420.50000 0.97059 -0.09710 -0.02624
420.60000 1.00885 0.07410 -0.03424
420.70000 0.98910 0.17085 0.03308
420.80000 1.08668 0.18825 0.00309
420.90000 0.88319 0.24133 -0.05235
421.00000 1.08615 0.17245 -0.03368
421.10000 0.97064 0.11296 0.01266
421.20000 0.98842 0.14926 0.01006
421.30000 1.01550 0.16596 -0.00026
421.40000 0.96642 0.05661 0.04076
421.50000 0.99975 -0.10534 0.01755
421.60000 0.98290 -0.19121 0.02978
421.70000 0.98950 -0.16537 0.00524
421.80000 1.00517 -0.01292 -0.06276
421.90000 1.01817 -0.03389 0.03015
422.00000 1.01855 -0.04374 0.02365
422.10000 1.04273 -0.09076 -0.02348
422.20000 0.99828 -0.06655 -0.04053
422.30000 0.95217 -0.10871 -0.00070
422.40000 1.01889 0.01978 0.00316
422.50000 1.05368 0.09315 0.01028
422.60000 0.99237 -0.00371 0.03508
422.70000 0.96064 -0.16573 0.01137
422.80000 0.96819 -0.11484 -0.04953
422.90000 1.01889 -0.01108 0.00146
423.00000 0.91118 0.12726 -0.01784
423.10000 1.06049 0.02909 0.00933
423.20000 0.99735 0.30316 -0.03000
423.30000 1.04631 0.45786 0.00698
423.40000 0.99580 0.45233 -0.00453
423.50000 0.95413 0.16496 -0.05985
423.60000 1.02255 -0.07806 0.03003
423.70000 0.98666 -0.10660 0.02058
423.80000 1.01608 -0.12507 -0.04204
423.90000 1.03175 -0.27448 -0.00759
424.00000 1.00821 -0.41939 -0.00651
424.10000 0.94753 -0.26654 0.07112
424.20000 1.02023 -0.07192 -0.00773
424.30000 1.01530 0.09517 -0.07125
424.40000 1.03109 0.27207 -0.05894
424.50000 0.96938 0.09145 0.04961
424.60000 1.00239 -0.00787 -0.01505
424.70000 1.02182 -0.23586 0.03341
424.80000 0.98690 -0.20568 -0.03423
424.90000 1.02856 0.01677 0.00209
425.00000 0.94625 0.11823 -0.01336
425.10000 0.99669 0.26134 0.04716
425.20000 1.03496 0.34900 0.05755
425.30000 0.98044 0.25879 -0.04913
425.40000 1.03217 0.20350 0.01852
425.50000 0.97916 0.10936 0.01530
425.60000 1.00266 -0.00868 0.03272
425.70000 1.05512 0.08994 0.02745
425.80000 0.96471 0.16356 -0.00260
425.90000 0.96243 0.13447 -0.01444
426.00000 1.06906 0.22355 0.01442
426.10000 0.95916 0.28299 -0.02811
426.20000 1.00292 0.25640 0.02344
426.30000 1.07302 -0.03064 0.02092
426.40000 0.92107 -0.02458 -0.06723
426.50000 1.03862 0.12279 0.01390
426.60000 1.01880 0.10741 -0.01005
426.70000 0.99176 0.18773 -0.03244
426.80000 1.06653 0.18092 -0.01404
426.90000 1.00621 0.01556 0.00781
427.00000 0.98975 -0.05426 0.00228
427.10000 0.97313 -0.10509 0.00917
427.20000 1.01039 -0.05376 -0.07398
427.30000 1.02714 0.04882 -0.00568
427.40000 1.02564 0.06359 0.01640
427.50000 1.05452 0.17667 0.02459
427.60000 1.01301 0.19968 -0.05133
427.70000 1.00197 0.18898 -0.05287
427.80000 1.05011 0.16079 0.06606
427.90000 0.93911 0.07233 0.01152
428.00000 1.00341 -0.13439 -0.02852
428.10000 0.96419 -0.03213 -0.01185
428.20000 1.01084 -0.01477 -0.02434
428.30000 1.03941 0.01227 0.03750
428.40000 0.98621 0.12571 0.02964
428.50000 1.01797 0.05133 -0.02713
428.60000 0.95065 -0.09864 0.05205
428.70000 1.03580 -0.12178 -0.02061
428.80000 1.00633 -0.09812 -0.01228
428.90000 1.03101 -0.06233 0.01061
429.00000 0.98021 0.13938 0.01882
429.10000 1.01852 0.07683 0.05871
429.20000 1.01029 -0.00386 -0.00480
429.30000 1.02902 0.15055 -0.03681
429.40000 1.05680 0.33628 0.04239
429.50000 0.96288 0.34547 -0.01093
429.60000 1.00141 0.35340 -0.03508
429.70000 0.98065 -0.08137 -0.01852
429.80000 0.94214 -0.18957 -0.01560
429.90000 1.05780 -0.15466 -0.03184
430.00000 0.96753 -0.08627 0.02257
430.10000 0.94286 0.04183 0.01027
430.20000 1.13797 0.08911 0.02060
430.30000 0.93901 0.06541 -0.01527
430.40000 1.05453 -0.01641 -0.05759
430.50000 0.96328 -0.06809 -0.01707
430.60000 1.02381 0.10038 0.02749
430.70000 0.98224 0.16934 0.03508
430.80000 1.00725 0.45358 -0.07716
430.90000 0.99287 0.26194 0.04610
431.00000 0.97323 -0.22776 0.01350
431.10000 0.99280 -0.38315 0.03481
431.20000 1.00576 -0.19338 -0.00788
431.30000 1.01189 0.00181 0.00930
431.40000 0.93403 0.03580 -0.02234
431.50000 1.04987 0.03528 0.00785
431.60000 0.97660 0.08170 0.04770
431.70000 1.02233 0.04774 -0.06025
431.80000 0.91835 -0.04161 0.00613
431.90000 1.00365 -0.09110 -0.01337
432.00000 0.99382 -0.17364 0.00479
432.10000 1.01320 -0.24495 0.06488
432.20000 1.00041 -0.24089 0.00685
432.30000 0.95462 -0.01965 -0.02406
432.40000 1.08191 0.08448 0.01150
432.50000 0.93928 0.16106 0.01694
432.60000 1.00506 0.07035 -0.04556
432.70000 0.99290 -0.03715 -0.04400
432.80000 1.01607 -0.00990 0.08182
432.90000 1.01077 -0.08809 -0.00377
433.00000 1.01386 0.04321 -0.05990
433.10000 1.01420 0.07603 -0.00319
433.20000 0.93885 -0.00663 -0.02465
433.30000 1.04230 0.01012 -0.01835
433.40000 0.93284 -0.00001 0.04654
433.50000 0.98469 0.08346 -0.03991
433.60000 0.98369 -0.02579 -0.00669
433.70000 1.03222 -0.10864 -0.00059
433.80000 0.93064 -0.08067 -0.00330
433.90000 1.03106 -0.12211 0.00352
434.00000 1.01023 -0.24787 0.01365
434.10000 1.01458 -0.17630 -0.02097
434.20000 1.00949 -0.11344 -0.00125
434.30000 1.06316 -0.07018 -0.01403
434.40000 0.97363 -0.00040 0.00451
434.50000 1.02830 -0.02656 -0.00876
434.60000 0.97200 -0.08058 -0.06983
434.70000 1.03171 0.00168 0.00522
434.80000 1.01842 0.01632 -0.03854
434.90000 0.90526 0.06884 -0.03549
435.00000 1.01437 0.15705 0.03223
435.10000 0.98620 -0.02552 0.02917
435.20000 1.04279 -0.19942 -0.02531
435.30000 1.00744 -0.08367 0.01401
435.40000 1.00749 0.20287 0.01309
435.50000 0.97250 0.16204 -0.01100
435.60000 1.03216 0.01705 0.05986
435.70000 0.94707 -0.10104 -0.04763
435.80000 1.06391 0.17996 0.01143
435.90000 0.94812 0.29549 0.07942
436.00000 0.97792 0.34659 -0.00369
436.10000 1.06569 0.36659 0.01576
436.20000 0.90861 0.23254 0.07183
436.30000 1.07180 0.10224 -0.05489
436.40000 0.94773 -0.03614 -0.06513
436.50000 1.04180 -0.17148 -0.02350
436.60000 0.95029 -0.18379 0.07700
436.70000 1.03050 -0.24788 -0.06682
436.80000 0.96669 -0.22743 -0.05195
436.90000 0.97680 -0.15089 0.01795
437.00000 1.01137 -0.12658 -0.01389
437.10000 1.01402 -0.04257 0.03758
437.20000 1.04852 0.07798 0.03556
437.30000 0.97290 0.21988 -0.05311
437.40000 0.98698 0.14408 -0.00443
437.50000 1.00594 0.01657 0.00406
437.60000 1.06875 0.01443 0.01983
437.70000 0.96520 0.07497 0.01897
437.80000 0.99594 0.01900 -0.06016
437.90000 0.95163 0.07655 -0.06652
438.00000 1.01852 -0.06605 0.00258
438.10000 1.00526 -0.22739 -0.01632
438.20000 0.97456 -0.32381 0.01183
438.30000 1.01926 -0.27153 -0.02865
438.40000 1.01473 -0.17790 0.02660
438.50000 1.00644 -0.03315 0.01990
438.60000 0.97648 -0.14027 0.01026
438.70000 0.98864 -0.30983 -0.02820
438.80000 1.01013 -0.07012 -0.03532
438.90000 1.00346 0.11624 0.00202
439.00000 0.99291 0.06979 -0.04063
439.10000 0.98874 -0.10922 0.02342
439.20000 1.02122 0.02007 -0.04340
439.30000 1.01897 -0.03785 -0.05718
439.40000 1.02668 0.05443 0.00731
439.50000 0.96815 0.07960 -0.03019
439.60000 0.98183 -0.00450 0.00338
439.70000 1.05789 -0.05241 -0.00450
439.80000 0.96272 0.03015 -0.02420
439.90000 1.05287 0.11072 -0.03415
440.00000 0.96463 0.09890 0.07190
440.10000 0.96273 0.01563 0.06874
440.20000 1.05502 0.03868 -0.00817
440.30000 0.92369 0.15095 -0.03240
440.40000 1.10110 0.08919 0.00636
440.50000 0.95581 -0.02495 0.08719
440.60000 1.07557 -0.14211 -0.02348
440.70000 1.00057 -0.06866 -0.04009
440.80000 1.01176 -0.17404 -0.01670
440.90000 0.94987 0.05994 -0.01177
441.00000 0.99871 0.12792 0.01332
441.10000 1.03624 -0.05085 -0.03380
441.20000 1.00344 0.03721 -0.03781
441.30000 1.03887 0.08487 -0.02513
441.40000 0.97133 -0.15712 0.07687
441.50000 1.03511 -0.31841 0.01182
441.60000 0.98155 -0.10883 -0.02284
441.70000 0.95230 0.19941 0.02498
441.80000 1.03999 0.28511 -0.00748
441.90000 0.97403 0.14300 -0.01188
442.00000 1.00207 -0.10430 0.03832
442.10000 0.98887 -0.10881 0.04246
442.20000 1.02297 -0.02992 -0.02505
442.30000 0.98458 -0.23242 -0.03228
442.40000 0.95628 -0.43923 0.02928
442.50000 1.06041 -0.15472 0.00178
442.60000 0.94267 0.03974 -0.03966
442.70000 1.00424 0.00206 0.00261
442.80000 1.01861 -0.02288 0.06574
442.90000 1.02228 -0.03447 -0.06041
443.00000 0.96396 -0.04588 -0.03759
443.10000 0.98941 0.01415 0.08237
443.20000 1.01007 0.06538 -0.01149
443.30000 0.99628 0.03236 0.01497
443.40000 0.93517 -0.09266 0.01373
443.50000 0.99704 -0.05493 -0.06668
443.60000 1.04164 0.09767 0.04618
443.70000 1.00037 0.03170 -0.00502
443.80000 1.01033 0.01903 -0.06986
443.90000 1.03529 0.00145 0.02159
444.00000 0.95294 0.01903 0.01884
444.10000 1.01493 -0.11409 -0.01812
444.20000 0.96376 -0.15844 -0.01590
444.30000 1.09077 0.16153 0.04276
444.40000 0.88810 0.18128 -0.01141
444.50000 1.01208 0.07567 0.03266
444.60000 0.98116 -0.08769 -0.00278
444.70000 1.02506 -0.07388 -0.05696
444.80000 0.99471 0.11869 0.03275
444.90000 1.00576 0.08855 -0.02468
445.00000 0.92270 -0.09749 0.03912
445.10000 1.08780 0.00460 -0.08040
445.20000 0.96812 -0.00223 0.04758
445.30000 0.99089 0.10007 -0.02618
445.40000 1.04732 0.12866 -0.01034
445.50000 0.97574 0.05994 0.02715
445.60000 1.02942 -0.07461 -0.01102
445.70000 0.96711 -0.10192 -0.01515
445.80000 1.08797 -0.20030 0.05067
445.90000 1.02322 -0.03703 -0.01648
446.00000 0.99975 0.20075 -0.03164
446.10000 0.99564 0.28153 0.01830
446.20000 0.93685 0.03654 -0.00669
446.30000 0.97424 0.07586 0.01287
446.40000 0.96933 -0.06864 -0.01454
446.50000 1.01158 -0.19747 -0.00778
446.60000 1.02229 -0.23984 0.04710
446.70000 0.95385 -0.07441 -0.04263
446.80000 1.07038 0.04291 -0.00096
446.90000 0.97230 -0.00297 -0.01284
447.00000 1.03372 -0.25501 -0.06996
447.10000 0.98375 -0.58117 0.02492
447.20000 1.01581 -0.37298 0.05492
447.30000 0.92259 0.00631 -0.07895
447.40000 1.01937 0.23583 0.00205
447.50000 1.02989 0.04445 0.07039
447.60000 0.94398 -0.17374 0.08575
447.70000 1.01485 -0.11511 -0.08692
447.80000 1.01841 0.13774 0.05039
447.90000 0.97476 0.37245 0.05688
448.00000 1.09524 0.45863 0.08035
448.10000 0.91490 0.40229 -0.03046
448.20000 1.01857 0.05945 -0.09476
448.30000 0.99541 -0.28009 -0.00420
448.40000 0.99920 -0.40455 -0.01359
448.50000 1.04410 -0.22724 -0.00709
448.60000 0.96716 -0.02487 0.00358
448.70000 1.04046 0.05035 -0.00189
448.80000 0.98916 0.05386 -0.02041
448.90000 1.01810 0.05093 0.00981
449.00000 1.01352 0.19357 -0.03303
449.10000 1.04812 0.19379 0.04984
449.20000 1.03432 0.03772 0.01548
449.30000 0.98897 -0.02599 -0.02533
449.40000 1.02177 -0.08295 -0.03277
449.50000 0.95749 0.06230 -0.01950
449.60000 1.06412 0.03959 -0.02553
449.70000 0.95697 -0.00885 0.00489
449.80000 1.02301 -0.05527 -0.02650
449.90000 0.98615 0.09207 0.00153
450.00000 1.02913 0.24081 -0.06827
450.10000 1.09149 0.16296 0.02938
450.20000 0.93381 0.08321 0.04358
450.30000 1.05311 -0.00671 -0.04287
450.40000 0.97522 0.12226 0.01383
450.50000 1.00263 -0.00931 0.00491
450.60000 1.00129 0.04449 -0.02468
450.70000 0.99645 0.24652 0.03320
450.80000 1.02505 0.16923 -0.00167
450.90000 0.93635 -0.08232 0.01013
451.00000 0.96741 -0.12987 -0.01128
451.10000 1.01890 -0.20660 -0.00174
451.20000 0.99805 -0.22805 0.01552
451.30000 0.94590 0.03686 -0.01712
451.40000 1.02431 0.26937 0.00817
451.50000 0.94894 0.32999 0.03000
451.60000 1.05224 0.24817 0.04766
451.70000 0.96856 0.16277 -0.07876
451.80000 1.00118 0.11748 0.06493
451.90000 0.99998 0.08922 0.01529
452.00000 1.05879 0.03822 0.01211
452.10000 1.02189 0.02351 0.00479
452.20000 0.99686 -0.11046 0.00118
452.30000 1.01495 -0.21291 0.01998
452.40000 1.01164 -0.20251 -0.01578
452.50000 1.03081 -0.33385 -0.04391
452.60000 1.01767 -0.29426 0.00203
452.70000 1.04344 -0.16190 0.04212
452.80000 0.96072 0.07246 -0.00515
452.90000 1.01328 0.11302 0.05188
453.00000 0.97387 -0.07439 0.00497
453.10000 0.99137 -0.11902 -0.05655
453.20000 1.04003 0.01822 0.04574
453.30000 0.98055 0.27803 0.00083
453.40000 0.98500 0.49589 -0.03167
453.50000 0.95840 0.46353 0.01753
453.60000 1.07180 0.06589 -0.02203
453.70000 0.98017 -0.13934 -0.02475
453.80000 0.96022 -0.13210 0.02395
453.90000 1.02240 -0.13109 0.01029
454.00000 0.98364 -0.10426 -0.01357
454.10000 0.98882 -0.05316 -0.05062
454.20000 0.96802 0.04491 0.04637
454.30000 0.96828 0.12959 -0.00008
454.40000 0.98695 0.06615 -0.05439
454.50000 0.97886 -0.04016 0.03934
454.60000 1.01841 -0.26060 -0.05227
454.70000 0.99054 -0.15925 0.06680
454.80000 0.99297 -0.12144 -0.02268
454.90000 0.97222 0.00045 -0.00630
455.00000 1.06515 -0.02946 0.01490
455.10000 0.96777 0.04200 0.02144
455.20000 1.06319 -0.02199 0.02676
455.30000 0.95238 -0.01179 0.00934
455.40000 1.03658 -0.01193 -0.01584
455.50000 0.94751 -0.06680 0.01017
455.60000 1.01980 -0.05530 0.03439
455.70000 1.05952 -0.20192 -0.04896
455.80000 1.04155 -0.22814 0.00515
455.90000 0.94967 -0.11535 0.05392
456.00000 1.03136 0.17751 -0.02244
456.10000 0.99554 0.23351 -0.07799
456.20000 0.93853 -0.01544 -0.00245
456.30000 1.05743 -0.21177 0.00706
456.40000 0.98105 -0.32802 0.01451
456.50000 0.97371 -0.09271 -0.02748
456.60000 1.03538 0.02199 0.00092
456.70000 0.95502 0.15799 -0.02119
456.80000 0.98525 0.26786 -0.03682
456.90000 0.98077 0.16343 0.06808
457.00000 1.04769 -0.07036 -0.01183
457.10000 0.95426 -0.13234 -0.07648
457.20000 0.98814 -0.20400 0.03582
457.30000 1.07610 -0.20551 0.01102
457.40000 0.99208 -0.13115 -0.02719
457.50000 0.99133 -0.30118 -0.02012
457.60000 0.99639 -0.37343 0.03729
457.70000 1.01222 -0.22765 -0.01575
457.80000 0.95319 -0.03510 0.02156
457.90000 1.04317 -0.09154 -0.00934
458.00000 0.99701 -0.04510 0.01325
458.10000 1.01808 -0.03462 0.00765
458.20000 1.00765 -0.01526 -0.01448
458.30000 1.01548 0.00785 0.03262
458.40000 0.99783 0.06256 -0.06638
458.50000 1.04237 -0.04384 0.00805
458.60000 0.91709 -0.09764 0.02371
458.70000 0.97796 -0.14924 -0.07330
458.80000 1.05094 -0.00108 0.01181
458.90000 0.96619 0.21675 0.06159
459.00000 1.04328 0.26493 -0.02528
459.10000 0.96916 0.07869 0.05552
459.20000 0.99852 -0.06477 0.00948
459.30000 1.06030 0.05894 -0.02847
459.40000 0.96516 0.15449 -0.04594
459.50000 1.05376 0.20640 0.01384
459.60000 0.88806 0.09851 0.01152
459.70000 1.08974 -0.07101 -0.02328
459.80000 1.04241 -0.11497 -0.01901
459.90000 1.03351 -0.08770 -0.11516
460.00000 0.98012 -0.08957 -0.00121
460.10000 0.99807 -0.05043 0.04901
460.20000 1.03037 0.04357 -0.00884
460.30000 0.98065 -0.04179 0.00922
460.40000 0.96676 0.12737 0.01866
460.50000 1.05691 0.31864 -0.01071
460.60000 0.96659 0.19500 0.00835
460.70000 0.94905 -0.05694 0.01970
460.80000 1.08925 0.00580 -0.01208
460.90000 0.87763 -0.02471 0.02672
461.00000 1.08300 -0.15887 0.00312
461.10000 0.95645 -0.14121 0.01050
461.20000 0.96705 -0.00084 -0.00914
461.30000 1.01475 -0.08093 -0.05063
461.40000 1.01403 0.04297 0.06111
461.50000 1.05729 0.14945 0.00484
461.60000 0.96320 0.13669 -0.04437
461.70000 1.00925 0.15254 -0.04424
461.80000 0.96713 -0.06305 0.05578
461.90000 0.98865 -0.17223 -0.05581
462.00000 0.97349 -0.03521 -0.04178
462.10000 0.98726 -0.00752 0.03414
462.20000 0.98358 0.08433 0.00051
462.30000 0.97677 -0.08375 -0.00456
462.40000 0.98279 0.11269 0.01170
462.50000 0.99763 0.34900 -0.02109
462.60000 0.98547 0.34069 0.02043
462.70000 1.04173 0.21921 0.01151
462.80000 1.00627 -0.05032 0.02924
462.90000 0.93707 -0.23148 -0.02988
463.00000 1.07215 -0.15933 0.01762
463.10000 0.98813 -0.04538 0.05967
463.20000 0.92143 -0.18434 0.01552
463.30000 1.04520 -0.26412 0.04113
463.40000 0.97567 -0.10969 -0.04912
463.50000 1.04986 -0.12308 -0.00936
463.60000 0.95430 -0.11073 0.04094
463.70000 1.00316 -0.21864 0.01509
463.80000 1.02780 -0.23073 0.01680
463.90000 0.98773 0.08778 -0.05168
464.00000 1.04639 0.24956 -0.00576
464.10000 1.00081 0.26724 -0.00101
464.20000 0.99417 0.03071 0.04138
464.30000 1.00749 0.08314 -0.03308
464.40000 1.01304 0.11516 -0.03831
464.50000 1.02995 0.05152 0.00818
464.60000 0.98668 -0.06696 0.03845
464.70000 1.04315 -0.19565 -0.01127
464.80000 0.98057 -0.22961 -0.00556
464.90000 0.99784 -0.23009 -0.01879
465.00000 1.00698 -0.22240 -0.04275
465.10000 0.96796 -0.06800 0.01888
465.20000 1.05996 0.26206 0.03311
465.30000 0.99375 0.42664 0.02518
465.40000 1.03451 0.43415 -0.07640
465.50000 0.98260 0.21267 -0.04023
465.60000 0.96019 0.06924 0.05111
465.70000 1.08478 0.11611 0.07649
465.80000 0.92516 0.14631 -0.05916
465.90000 1.04029 0.23268 0.00381
466.00000 0.97029 -0.00277 0.02729
466.10000 1.03910 -0.15443 -0.01943
466.20000 0.99814 -0.25671 -0.02001
466.30000 1.01372 -0.07959 0.06266
466.40000 1.01193 -0.00572 -0.01381
466.50000 0.93369 -0.06726 -0.05317
466.60000 1.02792 -0.04574 0.01629
466.70000 0.97655 0.11406 0.03387
466.80000 1.02168 0.08350 -0.06013
466.90000 1.00370 -0.20878 -0.01293
467.00000 1.00970 -0.24819 -0.04706
467.10000 0.96110 -0.31600 0.04021
467.20000 1.00079 -0.07121 0.05824
467.30000 1.03157 0.20912 -0.08679
467.40000 0.94437 0.11177 0.03443
467.50000 1.05527 -0.16959 0.00369
467.60000 0.99431 -0.34823 0.02788
467.70000 0.99323 -0.30881 0.00199
467.80000 0.90877 -0.02702 -0.02149
467.90000 1.06758 0.34610 -0.02401
468.00000 0.99188 0.29507 0.02210
468.10000 1.02411 -0.09667 -0.00272
468.20000 0.94740 -0.40282 0.03677
468.30000 0.97054 -0.38538 -0.00416
468.40000 1.06471 -0.20635 -0.05834
468.50000 1.00184 -0.06528 0.02666
468.60000 0.98860 0.01709 0.01475
468.70000 0.96209 0.11883 0.09135
468.80000 1.00756 0.08762 -0.02460
468.90000 1.07782 0.15834 -0.01222
469.00000 0.94278 0.09269 -0.03552
469.10000 0.97003 0.14184 -0.06292
469.20000 1.07425 0.07380 -0.03446
469.30000 0.99693 -0.00482 0.06391
469.40000 1.00005 -0.10940 0.01151
469.50000 0.97646 -0.18064 -0.02825
469.60000 0.95360 -0.10445 0.01837
469.70000 1.06294 0.00298 0.04133
469.80000 0.92933 0.12335 -0.00456
469.90000 1.08424 0.15928 -0.00637
470.00000 0.95237 0.11935 0.06025
470.10000 1.00773 -0.01295 -0.00913
470.20000 1.02089 0.00491 -0.01307
470.30000 0.96009 -0.21211 0.03468
470.40000 1.05029 -0.26417 -0.02731
470.50000 0.99495 0.00129 -0.02622
470.60000 0.96254 0.34154 -0.01283
470.70000 1.02279 0.40323 -0.02652
470.80000 0.98271 0.04018 -0.02165
470.90000 0.96711 -0.22316 0.00443
471.00000 1.06055 -0.19075 0.07757
471.10000 0.96218 -0.01330 -0.01519
471.20000 0.96863 0.02626 -0.04294
471.30000 1.00476 -0.13189 0.00508
471.40000 0.95884 0.02271 -0.00882
471.50000 1.04726 0.28862 0.03742
471.60000 0.99112 0.17399 0.01017
471.70000 1.03858 0.16966 -0.07553
471.80000 0.99814 0.12644 0.04329
471.90000 0.97918 0.06430 -0.00964
472.00000 1.03098 0.05933 -0.02280
472.10000 0.93063 0.34098 -0.03262
472.20000 0.98886 0.14201 -0.00223
472.30000 1.07664 0.01081 0.05578
472.40000 0.92039 0.08635 -0.05697
472.50000 1.04861 -0.02372 -0.00983
472.60000 0.98115 0.16710 -0.03850
472.70000 1.00658 -0.02177 0.02423
472.80000 0.96161 -0.28171 0.01658
472.90000 1.00803 -0.35004 0.00357
473.00000 0.94754 -0.37231 0.00752
473.10000 1.04896 -0.33597 0.04084
473.20000 0.97340 0.00691 -0.01587
473.30000 1.03630 0.01060 0.04753
473.40000 0.94488 -0.21014 -0.04412
473.50000 1.10818 -0.15521 -0.03008
473.60000 0.93044 -0.11524 0.00099
473.70000 1.02468 -0.20081 -0.00078
473.80000 0.98347 -0.10268 0.05135
473.90000 0.99956 -0.10599 -0.03382
474.00000 0.99798 0.05995 -0.01419
474.10000 1.02635 0.24108 0.03845
474.20000 1.02777 0.45264 -0.05332
474.30000 0.92266 0.32610 -0.00086
474.40000 1.04915 0.07527 -0.00412
474.50000 1.01414 -0.17527 -0.01853
474.60000 0.94495 -0.18812 0.02672
474.70000 1.05774 -0.05256 -0.00735
474.80000 0.98396 0.17375 0.02163
474.90000 0.98213 0.21031 0.01536
475.00000 1.08314 0.12657 0.01643
475.10000 0.95775 -0.11309 0.03528
475.20000 1.01337 -0.14012 -0.03410
475.30000 0.95513 -0.17000 0.00622
475.40000 1.03267 -0.19856 -0.07255
475.50000 0.90996 -0.21076 -0.01624
475.60000 1.07163 -0.08281 -0.00918
475.70000 0.96023 0.16025 -0.00724
475.80000 1.02957 0.24695 -0.03961
475.90000 0.97003 0.13682 0.04094
476.00000 1.05026 0.12509 0.01456
476.10000 0.99218 0.18419 -0.02380
476.20000 0.97655 0.13388 0.01942
476.30000 1.01184 0.07038 -0.02960
476.40000 1.01735 -0.03361 -0.05411
476.50000 1.01309 -0.02325 0.03269
476.60000 0.98486 -0.21502 -0.03803
476.70000 1.01271 -0.30194 0.03827
476.80000 0.98170 -0.10112 0.02741
476.90000 1.00179 0.00965 -0.06538
477.00000 1.01368 0.03820 -0.01877
477.10000 0.97383 -0.08998 -0.02571
477.20000 1.00078 -0.20589 -0.01681
477.30000 1.03583 -0.14120 -0.01264
477.40000 1.00007 0.12654 0.02648
477.50000 1.03936 0.25066 0.03088
477.60000 1.01551 -0.08216 0.03206
477.70000 0.99218 -0.13403 -0.00564
477.80000 0.98631 -0.22820 -0.00929
477.90000 1.04008 -0.17608 0.06724
478.00000 1.02529 0.01408 -0.00999
478.10000 0.98814 0.02000 -0.04184
478.20000 0.98023 -0.04793 0.00975
478.30000 1.00853 -0.02998 -0.01352
478.40000 1.04066 0.14810 -0.03907
478.50000 0.97079 0.26783 0.03612
478.60000 1.00213 0.33441 0.02796
478.70000 1.01871 0.22306 0.02208
478.80000 0.98338 -0.00880 -0.07427
478.90000 0.93583 0.01775 -0.01721
479.00000 1.01050 0.03204 0.00170
479.10000 0.96284 0.06766 0.08162
479.20000 1.08292 -0.03926 -0.01563
479.30000 0.95936 -0.12959 -0.00103
479.40000 1.05877 -0.24906 0.00590
479.50000 0.96561 -0.30519 0.02179
479.60000 1.00999 -0.31115 0.00548
479.70000 0.94157 0.02097 -0.03286
479.80000 0.99653 0.23492 -0.00244
479.90000 1.00980 0.11908 0.04270
480.00000 1.02513 0.13302 0.02325
480.10000 1.06427 0.06984 0.01120
480.20000 0.94412 -0.00371 0.00703
480.30000 0.99283 -0.10196 -0.00471
480.40000 1.02191 -0.07688 0.03798
480.50000 0.95138 -0.03818 0.03737
480.60000 1.02657 0.11231 -0.05449
480.70000 0.98159 0.18802 0.03020
480.80000 1.00233 0.06683 0.01231
480.90000 1.01392 0.12985 -0.01017
481.00000 1.03143 0.04568 0.04421
481.10000 0.97108 -0.03320 -0.04813
481.20000 1.06544 -0.06518 -0.06181
481.30000 0.94079 -0.16031 -0.00548
481.40000 1.00973 -0.12414 -0.03726
481.50000 1.02834 -0.18917 0.01767
481.60000 0.94740 -0.26575 -0.00758
481.70000 0.96545 -0.07739 -0.01291
481.80000 1.11276 0.12683 -0.01983
481.90000 0.90800 0.09579 0.01970
482.00000 1.07359 -0.01647 0.00076
482.10000 0.97082 -0.20036 -0.07215
482.20000 1.02957 -0.38581 0.00147
482.30000 1.01310 -0.13403 0.07076
482.40000 0.97047 0.02951 0.00319
482.50000 1.01348 0.01482 -0.01226
482.60000 1.01569 0.03425 -0.01961
482.70000 0.93532 0.05493 -0.01807
482.80000 0.99898 0.07787 0.07390
482.90000 1.08683 -0.13931 -0.00088
483.00000 0.93467 -0.24417 -0.06622
483.10000 1.11141 -0.20036 0.02941
483.20000 0.93250 -0.00185 -0.01420
483.30000 1.01378 0.20437 -0.01553
483.40000 1.08653 0.27967 -0.01345
483.50000 0.88755 0.23850 -0.01307
483.60000 1.05581 0.05324 0.02358
483.70000 0.99168 -0.03000 0.04186
483.80000 1.00842 -0.12931 -0.02443
483.90000 0.99096 -0.14077 -0.03630
484.00000 0.95696 -0.24215 -0.03847
484.10000 1.06487 -0.13175 0.00620
484.20000 0.97381 0.10414 -0.03189
484.30000 1.00869 0.25991 0.05606
484.40000 0.96142 0.34101 0.03429
484.50000 1.02169 0.07554 -0.02535
484.60000 1.03850 -0.24105 -0.00546
484.70000 0.97135 -0.31185 0.00744
484.80000 0.98396 -0.32342 -0.01513
484.90000 1.03926 -0.05647 0.06363
485.00000 0.94324 0.03271 -0.00317
485.10000 1.01638 0.08831 0.05229
485.20000 0.98305 -0.17095 -0.00647
485.30000 0.95531 -0.20881 0.05864
485.40000 1.04185 -0.09221 0.01148
485.50000 0.99031 -0.03385 0.02435
485.60000 1.02529 0.03813 -0.08840
485.70000 0.97092 0.07438 0.01110
485.80000 0.99166 0.14189 0.04499
485.90000 1.10101 0.01668 -0.03816
486.00000 0.95146 0.01682 0.04212
486.10000 0.99290 -0.03492 0.05258
486.20000 1.01097 -0.06843 -0.01480
486.30000 0.92865 0.02755 -0.07492
486.40000 1.09038 0.11094 0.04129
486.50000 0.89343 0.07617 0.04191
486.60000 1.06231 -0.07414 -0.01235
486.70000 0.93787 -0.08101 -0.02180
486.80000 1.01530 -0.12744 -0.00526
486.90000 0.96649 -0.00901 0.01425
487.00000 0.98578 0.09407 -0.03524
487.10000 1.00708 0.03957 -0.03111
487.20000 1.03591 0.05353 -0.02705
487.30000 0.98204 0.07028 0.00276
487.40000 1.02006 0.01116 0.02629
487.50000 1.01960 -0.09859 0.01700
487.60000 0.97419 0.04705 -0.00609
487.70000 1.01527 -0.03920 -0.01466
487.80000 1.02273 -0.09728 -0.00293
487.90000 0.97476 -0.02511 0.02256
488.00000 1.02247 0.08358 -0.02478
488.10000 0.97177 0.13104 -0.01034
488.20000 1.00033 0.00330 0.01499
488.30000 0.93828 0.08646 0.03818
488.40000 1.08156 0.11513 -0.03771
488.50000 0.99882 0.03999 -0.01439
488.60000 0.91424 -0.02264 0.06290
488.70000 1.08472 -0.03111 -0.04557
488.80000 0.96363 -0.07796 0.01131
488.90000 0.99722 -0.07334 0.01134
489.00000 1.01025 -0.20502 0.01887
489.10000 1.00323 -0.22405 -0.01341
489.20000 1.01580 -0.29602 0.01642
489.30000 0.99433 -0.32951 0.03964
489.40000 0.99109 -0.37574 0.01326
489.50000 1.00169 -0.25254 -0.04710
489.60000 1.03622 -0.20470 0.01325
489.70000 0.98622 -0.26320 0.03191
489.80000 0.95376 -0.18823 0.01508
489.90000 0.99958 -0.08835 -0.00774
490.00000 1.00854 -0.01101 -0.03239
490.10000 1.02840 0.08905 0.02413
490.20000 0.96025 0.28866 -0.02840
490.30000 1.02721 0.27602 0.03632
490.40000 0.93116 0.01125 0.00574
490.50000 1.05561 -0.07572 -0.00668
490.60000 1.00760 -0.17717 0.06748
490.70000 0.98370 -0.12507 -0.00464
490.80000 0.97790 -0.08756 -0.05941
490.90000 1.05896 -0.21389 0.01464
491.00000 0.97391 -0.10945 0.08240
491.10000 0.94858 -0.13305 0.02705
491.20000 1.08338 -0.14602 -0.06775
491.30000 0.94169 -0.10152 0.08307
491.40000 1.02463 -0.06284 -0.02227
491.50000 0.96566 0.11646 -0.04464
491.60000 1.04139 0.31029 0.02099
491.70000 0.96549 0.14004 0.03333
491.80000 1.08305 -0.03991 -0.01878
491.90000 0.95204 0.01761 -0.03685
492.00000 0.95663 0.02674 0.04600
492.10000 1.06487 0.23158 0.09747
492.20000 0.93905 0.26546 -0.08489
492.30000 1.02555 0.05932 -0.05351
492.40000 1.00242 -0.03660 0.02289
492.50000 0.90743 -0.04495 0.00365
492.60000 1.04610 0.00694 -0.01192
492.70000 0.97417 0.10497 0.01070
492.80000 1.03824 0.05462 0.00623
492.90000 0.96114 -0.02307 0.04628
493.00000 1.03659 -0.04541 -0.03199
493.10000 0.97342 -0.02931 -0.02362
493.20000 0.98158 -0.10688 0.01480
493.30000 0.97257 -0.01586 -0.00374
493.40000 1.06008 0.17758 -0.07589
493.50000 1.01080 0.13816 -0.02122
493.60000 0.99455 0.19669 0.00797
493.70000 1.04269 -0.09425 -0.07294
493.80000 0.96621 -0.04438 0.02927
493.90000 1.07945 -0.12768 0.02550
494.00000 0.95456 -0.29163 -0.02204
494.10000 1.01540 -0.11268 -0.00436
494.20000 0.95932 0.00329 -0.02611
494.30000 1.07342 0.06551 0.07346
494.40000 0.95945 -0.12473 -0.09700
494.50000 0.98498 -0.20378 0.04546
494.60000 1.01569 -0.26885 0.01521
494.70000 1.01648 -0.21767 0.02508
494.80000 1.00395 -0.10077 0.03870
494.90000 1.05540 0.07220 0.00018
495.00000 0.96425 -0.01318 0.00998
495.10000 1.01776 -0.01649 -0.02372
495.20000 1.10587 -0.08544 0.01393
495.30000 0.97170 -0.10042 0.03256
495.40000 1.04178 0.11487 -0.01845
495.50000 0.97065 0.15529 0.03877
495.60000 0.97276 0.08751 -0.01665
495.70000 1.05383 0.18581 -0.02064
495.80000 0.97397 0.07410 -0.06208
495.90000 0.98212 0.03198 0.00626
496.00000 1.05292 0.12985 0.05303
496.10000 1.00074 -0.05307 -0.03549
496.20000 1.02061 -0.16003 0.01560
496.30000 1.02803 -0.13429 0.09873
496.40000 0.97715 -0.08215 0.00192
496.50000 1.00475 0.05351 -0.03739
496.60000 1.04495 0.11367 -0.00017
496.70000 0.94975 0.00928 -0.07110
496.80000 0.93757 -0.08379 -0.08893
496.90000 1.03241 -0.17237 -0.00747
497.00000 0.98453 0.02552 -0.04910
497.10000 0.98086 0.11944 0.00990
497.20000 1.03592 0.16672 0.00526
497.30000 1.01109 0.12249 0.01639
497.40000 0.99424 -0.08813 0.01374
497.50000 0.97890 -0.09420 0.03665
497.60000 0.96685 0.16185 -0.01149
497.70000 1.11235 0.35182 0.02002
497.80000 0.96028 0.22439 0.00653
497.90000 1.07405 0.05791 0.00058
498.00000 0.95930 0.00319 0.01636
498.10000 1.05661 0.04061 -0.04803
498.20000 0.99734 0.00369 -0.04189
498.30000 0.91789 -0.07051 0.04930
498.40000 1.08925 -0.19852 0.01633
498.50000 0.99604 -0.17552 -0.01309
498.60000 0.92905 0.16843 0.04654
498.70000 1.00899 0.15313 0.04162
498.80000 1.04261 0.04384 0.00866
498.90000 0.99157 0.05703 -0.07895
499.00000 0.98407 -0.00708 0.00897
499.10000 1.00887 0.05396 -0.00471
499.20000 1.00025 0.13950 -0.02039
499.30000 0.98548 0.09978 0.01685
499.40000 1.07069 -0.13970 -0.01368
499.50000 0.97335 -0.40533 -0.03317
499.60000 1.04744 -0.46238 -0.05389
499.70000 0.94079 -0.30825 0.06173
499.80000 1.00488 -0.09782 -0.01742
499.90000 1.00200 0.04751 -0.03140
500.00000 0.92369 0.17073 -0.05929
