# t[ps]  x[nm]  y[nm]  z[nm]
0.00000 0.08732 -0.01384 -0.02099
0.10000 1.38001 -0.04613 0.00124
0.20000 1.80419 -0.10512 -0.00357
0.30000 1.28918 -0.24163 -0.03449
0.40000 1.33485 -0.10711 -0.00962
0.50000 1.44828 0.24552 0.02452
0.60000 1.41176 0.23181 -0.00516
0.70000 1.39057 0.09166 -0.01984
0.80000 1.47737 0.15367 0.07340
0.90000 1.44551 0.27678 -0.04776
1.00000 1.40424 0.50375 0.00564
1.10000 1.46239 0.15685 -0.03539
1.20000 1.30558 -0.09390 0.02298
1.30000 1.44433 -0.25450 0.00244
1.40000 1.34300 -0.18396 -0.03276
1.50000 1.46197 -0.10781 0.02983
1.60000 1.44802 -0.28345 -0.03186
1.70000 1.36195 -0.28170 0.02128
1.80000 1.42439 -0.08584 0.00362
1.90000 1.45302 0.21348 0.02315
2.00000 1.41585 0.17485 -0.03214
2.10000 1.45345 0.18553 0.03362
2.20000 1.34035 0.04252 -0.01367
2.30000 1.37155 -0.12562 0.01159
2.40000 1.47360 -0.27865 0.01335
2.50000 1.39279 -0.25192 -0.00187
2.60000 1.41306 -0.12535 0.00069
2.70000 1.46026 0.06112 0.02363
2.80000 1.45518 0.12897 -0.00062
2.90000 1.37964 0.25511 0.01148
3.00000 1.41232 0.10223 0.01010
3.10000 1.43448 -0.21188 -0.05411
3.20000 1.37838 -0.29271 -0.04133
3.30000 1.37460 -0.03354 0.01665
3.40000 1.43789 0.02346 0.04315
3.50000 1.41667 -0.12869 -0.01323
3.60000 1.36038 -0.36281 -0.03603
3.70000 1.45312 -0.34614 0.03036
3.80000 1.40394 -0.01972 -0.03809
3.90000 1.46620 0.20116 -0.06378
4.00000 1.39544 -0.04031 0.04894
4.10000 1.35532 -0.12521 0.02054
4.20000 1.49533 -0.14079 -0.03664
4.30000 1.36691 -0.10881 0.03787
4.40000 1.42879 -0.11159 -0.00789
4.50000 1.44577 -0.06368 -0.00366
4.60000 1.38057 0.03905 0.05522
4.70000 1.41128 0.15583 -0.10582
4.80000 1.43228 0.00749 0.09036
4.90000 1.40197 -0.11408 -0.09297
5.00000 1.31132 -0.15730 -0.00320
5.10000 1.44944 -0.05469 0.01791
5.20000 1.44297 -0.01934 -0.01168
5.30000 1.39300 0.12272 -0.01308
5.40000 1.48596 -0.01092 0.05555
5.50000 1.46159 -0.19371 -0.05886
5.60000 1.36683 -0.24496 -0.00440
5.70000 1.41855 -0.21029 -0.07106
5.80000 1.47680 -0.09199 0.05432
5.90000 1.36860 -0.01304 0.02457
6.00000 1.37872 0.16972 0.00646
6.10000 1.43358 0.34183 -0.05509
6.20000 1.46420 0.25446 -0.03660
6.30000 1.43629 -0.00897 0.01771
6.40000 1.39703 -0.10041 0.04518
6.50000 1.44828 0.03729 -0.00970
6.60000 1.40285 0.04212 0.00500
6.70000 1.39096 -0.21115 0.00219
6.80000 1.41966 -0.22233 -0.01380
6.90000 1.42986 -0.04191 -0.01929
7.00000 1.40187 0.02210 0.00853
7.10000 1.42960 -0.11855 -0.00888
7.20000 1.39670 -0.16571 0.04237
7.30000 1.45378 -0.05545 -0.03204
7.40000 1.40737 0.14159 -0.00707
7.50000 1.39259 0.13022 0.02256
7.60000 1.39031 -0.16270 -0.02336
7.70000 1.42544 -0.35517 -0.00191
7.80000 1.41695 -0.12702 0.05863
7.90000 1.46653 0.07666 -0.01953
8.00000 1.42911 0.06628 0.00528
8.10000 1.40058 -0.01807 -0.01357
8.20000 1.47867 0.00475 -0.02073
8.30000 1.36817 0.11199 0.00360
8.40000 1.40887 0.11498 -0.02877
8.50000 1.36170 0.02137 0.05077
8.60000 1.46000 -0.25005 -0.04340
8.70000 1.44848 -0.22488 0.00571
8.80000 1.41062 -0.11292 0.00772
8.90000 1.46336 -0.10341 -0.00762
9.00000 1.42118 0.07805 0.00050
9.10000 1.45123 0.22594 0.02439
9.20000 1.37964 0.23698 -0.02970
9.30000 1.39376 -0.02323 0.00515
9.40000 1.44358 -0.19065 0.04845
9.50000 1.43031 -0.21702 -0.01979
9.60000 1.35064 -0.23690 0.04739
9.70000 1.43212 -0.08432 -0.01792
9.80000 1.45804 -0.04910 -0.02015
9.90000 1.44598 -0.01744 -0.01406
10.00000 1.43088 0.15354 -0.03047
10.10000 1.32577 0.24841 0.00284
10.20000 1.42420 0.10414 0.01109
10.30000 1.48777 -0.13141 -0.02456
10.40000 1.34544 -0.12669 0.03288
10.50000 1.51499 -0.03783 0.02090
10.60000 1.43731 0.11910 0.01246
10.70000 1.37222 0.26890 -0.00996
10.80000 1.41747 0.14955 -0.01288
10.90000 1.39402 0.00327 0.02134
11.00000 1.47627 -0.03917 -0.05848
11.10000 1.41933 -0.25435 0.02254
11.20000 1.34279 -0.25156 0.05100
11.30000 1.45238 -0.12646 -0.07084
11.40000 1.43069 -0.05422 0.02727
11.50000 1.36172 -0.07298 0.02717
11.60000 1.35208 0.10659 -0.05939
11.70000 1.45308 0.24145 -0.01988
11.80000 1.41637 0.29393 0.00305
11.90000 1.35841 0.08453 0.03416
12.00000 1.40502 0.01240 -0.04514
12.10000 1.39071 0.09974 -0.00204
12.20000 1.43620 0.06259 0.02630
12.30000 1.42164 -0.17058 0.05019
12.40000 1.43516 -0.05533 -0.01620
12.50000 1.45203 -0.07472 -0.01760
12.60000 1.39673 -0.09203 -0.01363
12.70000 1.44200 -0.00460 0.01988
12.80000 1.36364 0.27552 -0.03149
12.90000 1.43460 0.22011 -0.01177
13.00000 1.41074 -0.07140 -0.01923
13.10000 1.44921 -0.11173 0.01724
13.20000 1.39977 -0.01049 0.03629
13.30000 1.34466 0.08756 -0.00996
13.40000 1.46494 0.03855 0.01586
13.50000 1.43213 -0.08464 0.00818
13.60000 1.40523 -0.08284 -0.00835
13.70000 1.40843 0.00567 -0.04028
13.80000 1.43553 0.02508 0.01620
13.90000 1.42000 0.08302 -0.02532
14.00000 1.47414 0.01730 -0.03405
14.10000 1.45519 -0.31716 0.03229
14.20000 1.39224 -0.20013 0.01685
14.30000 1.35235 -0.03769 0.01410
14.40000 1.45807 0.09442 -0.07080
14.50000 1.44281 0.06315 0.00391
14.60000 1.39318 -0.07157 0.00998
14.70000 1.44638 -0.06750 0.00039
14.80000 1.45868 0.00077 0.00523
14.90000 1.38706 -0.01234 -0.04411
15.00000 1.46247 -0.16381 0.03525
15.10000 1.43228 -0.02144 0.01681
15.20000 1.41249 0.07261 -0.09337
15.30000 1.40998 0.17155 0.00379
15.40000 1.39364 0.21492 0.05308
15.50000 1.38251 -0.01723 -0.03661
15.60000 1.43180 -0.15551 -0.05600
15.70000 1.45454 -0.03270 0.03709
15.80000 1.36328 0.01355 0.02042
15.90000 1.46821 0.04659 0.00708
16.00000 1.43955 0.01849 -0.01281
16.10000 1.42001 -0.17302 -0.02806
16.20000 1.40917 -0.26317 0.02236
16.30000 1.42085 -0.23091 0.00525
16.40000 1.41897 -0.17133 -0.03534
16.50000 1.43544 0.02880 0.01140
16.60000 1.37148 0.02336 0.00171
16.70000 1.43754 0.15568 0.01486
16.80000 1.42651 0.08684 -0.02618
16.90000 1.38734 -0.00835 -0.02571
17.00000 1.38147 0.04399 0.07200
17.10000 1.39139 0.20057 -0.00470
17.20000 1.42666 0.18289 -0.06651
17.30000 1.43146 0.26377 0.04482
17.40000 1.34438 0.07812 0.02869
17.50000 1.36364 -0.15658 -0.03412
17.60000 1.43933 -0.27759 -0.02831
17.70000 1.45157 -0.38940 0.10703
17.80000 1.40740 -0.15904 -0.01923
17.90000 1.43189 0.03654 0.00560
18.00000 1.43815 0.18010 -0.06340
18.10000 1.42218 0.07047 -0.00851
18.20000 1.40571 -0.08352 0.00358
18.30000 1.46223 -0.15920 -0.02116
18.40000 1.37988 0.10588 0.03628
18.50000 1.42476 0.41595 0.04966
18.60000 1.34446 0.32682 0.01670
18.70000 1.39455 0.10207 -0.09460
18.80000 1.40473 -0.06016 -0.05824
18.90000 1.43445 -0.23753 0.00266
19.00000 1.35397 -0.19913 0.05491
19.10000 1.39176 0.08666 0.03702
19.20000 1.41557 0.37623 0.00750
19.30000 1.45710 0.31037 -0.00104
19.40000 1.37390 0.00583 -0.02309
19.50000 1.40899 -0.16696 0.01291
19.60000 1.44443 -0.34143 0.00724
19.70000 1.40568 -0.52680 0.02821
19.80000 1.40924 -0.36587 0.06543
19.90000 1.32716 -0.14459 -0.00364
20.00000 1.46059 -0.04476 -0.03567
20.10000 1.42878 0.04317 -0.04934
20.20000 1.45918 -0.01149 -0.00612
20.30000 1.42252 -0.16436 0.04702
20.40000 1.36964 -0.13918 -0.00810
20.50000 1.42619 -0.03651 -0.10607
20.60000 1.37335 0.05234 0.07869
20.70000 1.42031 -0.16119 0.03907
20.80000 1.37287 -0.05796 -0.05593
20.90000 1.44228 0.04541 0.03626
21.00000 1.39312 0.09737 -0.00939
21.10000 1.44268 0.00187 0.03017
21.20000 1.44575 -0.00311 -0.02108
21.30000 1.39787 -0.01707 -0.03792
21.40000 1.39685 0.06036 0.03989
21.50000 1.46739 0.08542 0.00070
21.60000 1.30641 -0.03326 -0.02448
21.70000 1.38498 0.03693 0.03251
21.80000 1.44042 0.16229 -0.04715
21.90000 1.39587 0.12743 -0.00995
22.00000 1.39068 0.14023 -0.01375
22.10000 1.41542 0.10835 -0.01937
22.20000 1.39545 -0.10915 0.01443
22.30000 1.40411 -0.01250 -0.05211
22.40000 1.47169 0.13453 -0.00510
22.50000 1.37105 -0.01173 -0.00607
22.60000 1.31926 -0.25279 0.03224
22.70000 1.45760 -0.31098 -0.01913
22.80000 1.45068 0.00624 0.03137
22.90000 1.39204 0.17631 -0.01091
23.00000 1.40378 0.02962 -0.01987
23.10000 1.42639 -0.06215 0.08402
23.20000 1.43961 -0.26910 -0.00929
23.30000 1.43039 -0.00935 -0.04158
23.40000 1.35469 0.01407 0.04290
23.50000 1.40162 -0.09960 0.04415
23.60000 1.46331 -0.15839 -0.03674
23.70000 1.33832 0.00232 0.03884
23.80000 1.44305 0.20662 0.06764
23.90000 1.44712 0.26053 -0.02989
24.00000 1.39247 0.15469 -0.02227
24.10000 1.43325 0.14342 -0.01072
24.20000 1.42659 0.19082 0.01842
24.30000 1.40014 0.03396 0.00066
24.40000 1.39571 -0.12181 0.00786
24.50000 1.40868 0.00566 0.01412
24.60000 1.44639 0.25103 -0.02210
24.70000 1.42861 0.12926 0.02706
24.80000 1.39130 0.24043 0.01758
24.90000 1.32561 0.25100 -0.00132
25.00000 1.49086 0.15817 -0.06895
25.10000 1.39860 -0.09555 0.04179
25.20000 1.40591 -0.19762 0.07892
25.30000 1.42635 -0.21535 -0.04459
25.40000 1.48858 -0.13856 -0.03271
25.50000 1.42131 -0.07442 0.00690
25.60000 1.33374 -0.06423 -0.01733
25.70000 1.41901 0.00480 0.03036
25.80000 1.49972 0.17875 -0.00487
25.90000 1.45766 0.35456 -0.03615
26.00000 1.39163 0.24379 -0.00632
26.10000 1.42140 0.22391 0.02420
26.20000 1.39637 0.23265 -0.01328
26.30000 1.44694 0.05767 -0.03418
26.40000 1.51837 -0.08466 -0.02026
26.50000 1.36867 -0.30870 -0.01842
26.60000 1.34197 -0.23492 -0.01188
26.70000 1.46769 0.06727 -0.02093
26.80000 1.43956 0.23269 0.01248
26.90000 1.42349 0.13639 0.00953
27.00000 1.35341 0.07168 -0.00616
27.10000 1.39989 -0.17627 -0.01796
27.20000 1.48009 -0.42865 -0.03571
27.30000 1.41961 -0.29799 0.02630
27.40000 1.37117 0.09554 0.05005
27.50000 1.46941 0.17711 -0.03649
27.60000 1.38399 0.18302 -0.02245
27.70000 1.40186 -0.09365 0.05071
27.80000 1.47827 -0.01295 -0.02194
27.90000 1.38306 -0.11972 -0.04646
28.00000 1.43691 -0.07179 0.07144
28.10000 1.42877 0.01247 -0.01894
28.20000 1.47547 -0.08758 -0.00650
28.30000 1.40662 -0.22842 0.06565
28.40000 1.40070 -0.24531 -0.06828
28.50000 1.36328 -0.04408 -0.00727
28.60000 1.44862 0.17182 0.00871
28.70000 1.46158 0.09405 -0.01144
28.80000 1.37667 -0.01933 0.00062
28.90000 1.40878 -0.22920 0.11931
29.00000 1.43985 -0.25554 0.02897
29.10000 1.39969 -0.22991 -0.06667
29.20000 1.43434 -0.19647 0.02927
29.30000 1.44896 -0.09479 0.02924
29.40000 1.36748 0.13373 -0.03404
29.50000 1.45732 0.09656 -0.02612
29.60000 1.39375 0.00242 0.03172
29.70000 1.41457 -0.12930 -0.03326
29.80000 1.45064 -0.23116 0.03927
29.90000 1.39519 -0.24515 0.03896
30.00000 1.41924 -0.12507 -0.01606
30.10000 1.38531 0.18087 0.01978
30.20000 1.44655 0.27106 -0.02712
30.30000 1.44166 -0.00759 0.04867
30.40000 1.47445 -0.12267 -0.06417
30.50000 1.38451 -0.13322 0.00133
30.60000 1.39607 -0.03497 0.07360
30.70000 1.37733 0.05060 0.02358
30.80000 1.41781 0.06196 -0.03278
30.90000 1.43995 0.00989 0.06236
31.00000 1.33433 0.26437 -0.03688
31.10000 1.43699 0.23037 -0.02289
31.20000 1.48179 0.25079 0.10801
31.30000 1.35724 0.14870 -0.02818
31.40000 1.37798 -0.28144 -0.03099
31.50000 1.47908 -0.39382 -0.00337
31.60000 1.45736 -0.19756 0.02039
31.70000 1.36592 -0.00162 0.00645
31.80000 1.38212 0.02044 -0.00878
31.90000 1.41797 -0.11936 -0.00929
32.00000 1.39703 -0.28490 -0.01986
32.10000 1.45991 -0.16634 0.00622
32.20000 1.39914 -0.00216 -0.05121
32.30000 1.42745 0.16454 0.04166
32.40000 1.42965 0.07841 0.04719
32.50000 1.39390 -0.00149 -0.01945
32.60000 1.42509 -0.01003 -0.01233
32.70000 1.43162 0.06512 -0.00996
32.80000 1.38688 0.08038 0.04936
32.90000 1.44904 -0.18349 -0.05825
33.00000 1.38255 -0.21000 0.01833
33.10000 1.39978 -0.10547 0.03060
33.20000 1.41767 0.15288 -0.02406
33.30000 1.42269 0.06413 -0.01219
33.40000 1.45583 -0.00881 -0.00337
33.50000 1.38684 -0.05825 -0.03052
33.60000 1.42687 -0.08676 0.02406
33.70000 1.46370 -0.12564 0.03626
33.80000 1.38552 -0.20431 0.00000
33.90000 1.45373 -0.25121 -0.03927
34.00000 1.45461 -0.28254 0.00233
34.10000 1.34167 -0.06514 -0.01389
34.20000 1.46129 -0.06945 0.05792
34.30000 1.45944 -0.12891 0.03513
34.40000 1.36693 -0.02584 -0.01840
34.50000 1.42685 0.00432 -0.00430
34.60000 1.43629 -0.14303 0.02064
34.70000 1.36915 -0.23839 -0.00889
34.80000 1.43387 -0.20528 0.01477
34.90000 1.40340 -0.16536 -0.03614
35.00000 1.43813 0.01949 -0.00596
35.10000 1.42222 0.26570 -0.02544
35.20000 1.38735 0.18175 -0.00197
35.30000 1.41301 0.28547 -0.01543
35.40000 1.51300 0.01086 -0.01018
35.50000 1.37709 -0.11638 -0.01186
35.60000 1.41392 0.09151 0.02356
35.70000 1.43647 0.10651 -0.01726
35.80000 1.37329 -0.14494 0.00351
35.90000 1.42153 -0.08886 0.00751
36.00000 1.40228 -0.28731 0.01164
36.10000 1.40393 -0.28074 0.03221
36.20000 1.41619 -0.06159 0.04720
36.30000 1.38109 0.04925 -0.01110
36.40000 1.40545 0.04317 -0.01530
36.50000 1.40886 -0.03441 0.04690
36.60000 1.43698 -0.05424 -0.02795
36.70000 1.39795 -0.05707 0.01277
36.80000 1.44319 -0.01428 -0.00184
36.90000 1.42361 0.05702 -0.02139
37.00000 1.39144 -0.01573 0.01156
37.10000 1.38326 0.09896 -0.00456
37.20000 1.48633 0.22332 -0.03487
37.30000 1.41762 0.29845 0.00133
37.40000 1.38425 0.00178 0.04632
37.50000 1.37981 -0.24915 -0.01148
37.60000 1.42885 -0.15837 -0.03896
37.70000 1.48951 -0.02135 -0.02976
37.80000 1.37679 0.14656 0.01104
37.90000 1.40369 0.07080 -0.03958
38.00000 1.43916 -0.00812 -0.02335
38.10000 1.42151 -0.18016 0.07643
38.20000 1.43634 -0.17500 -0.02427
38.30000 1.43218 -0.08855 0.01995
38.40000 1.45118 0.13508 0.00416
38.50000 1.38509 0.12639 -0.05060
38.60000 1.47017 0.04208 0.00578
38.70000 1.45911 0.09834 0.02673
38.80000 1.38449 -0.04309 0.02198
38.90000 1.38949 -0.05485 -0.03526
39.00000 1.40651 0.07206 -0.02266
39.10000 1.41070 0.09135 0.04111
39.20000 1.41673 0.01447 -0.06369
39.30000 1.37001 -0.23442 0.02795
39.40000 1.41607 -0.07076 0.07444
39.50000 1.42839 0.04242 -0.04493
39.60000 1.41954 -0.20173 -0.02779
39.70000 1.40668 -0.18485 -0.02124
39.80000 1.43010 -0.09742 0.04595
39.90000 1.36925 -0.09682 -0.02753
40.00000 1.44480 -0.19076 -0.05307
40.10000 1.38733 -0.31167 -0.00634
40.20000 1.41621 -0.38584 -0.01500
40.30000 1.43987 -0.27285 -0.02325
40.40000 1.44546 -0.11716 -0.01001
40.50000 1.44312 -0.17400 0.01828
40.60000 1.40816 -0.09223 -0.01895
40.70000 1.43137 0.09237 0.01163
40.80000 1.47941 0.09909 0.00173
40.90000 1.42623 -0.04510 -0.03820
41.00000 1.45362 -0.05299 -0.00327
41.10000 1.39918 0.14510 0.07836
41.20000 1.40251 0.22444 -0.01664
41.30000 1.35088 0.23090 -0.02380
41.40000 1.49971 0.27072 0.02170
41.50000 1.42747 0.03995 -0.05886
41.60000 1.40851 -0.34423 0.02662
41.70000 1.42603 -0.53085 0.00190
41.80000 1.41636 -0.25783 0.07787
41.90000 1.40593 0.01186 0.01760
42.00000 1.41853 0.19703 -0.04097
42.10000 1.49547 0.20161 -0.03638
42.20000 1.41952 0.05752 -0.00838
42.30000 1.42407 0.05756 -0.01330
42.40000 1.38609 0.10005 -0.00892
42.50000 1.47135 -0.03899 0.02440
42.60000 1.40846 -0.29426 -0.02101
42.70000 1.42680 -0.30885 0.00300
42.80000 1.39579 -0.08858 -0.01266
42.90000 1.39192 -0.06596 -0.03394
43.00000 1.45558 -0.17189 0.02906
43.10000 1.41166 0.00877 0.02432
43.20000 1.36344 0.04771 0.03684
43.30000 1.42176 -0.17823 -0.02915
43.40000 1.41306 -0.12288 0.01397
43.50000 1.44487 -0.00859 0.00865
43.60000 1.34103 0.17802 -0.05712
43.70000 1.46326 0.32916 0.02219
43.80000 1.41895 0.18615 -0.02330
43.90000 1.40603 -0.02863 0.07190
44.00000 1.47324 -0.03606 0.00516
44.10000 1.40110 0.08788 0.00491
44.20000 1.42652 0.09511 -0.03170
44.30000 1.40939 0.09312 -0.05550
44.40000 1.41061 0.14285 0.06666
44.50000 1.36521 0.21693 -0.05073
44.60000 1.50762 0.12412 0.03751
44.70000 1.43702 -0.06031 0.06629
44.80000 1.36761 -0.24091 -0.06881
44.90000 1.41669 -0.24757 -0.02468
45.00000 1.44649 -0.15601 0.00348
45.10000 1.41603 -0.00817 -0.01688
45.20000 1.43148 0.08744 -0.00903
45.30000 1.42357 0.01179 0.04449
45.40000 1.40877 -0.08344 -0.02143
45.50000 1.42303 -0.16588 0.01810
45.60000 1.44502 -0.14110 -0.02771
45.70000 1.42158 -0.02826 0.02525
45.80000 1.43764 0.00633 0.03003
45.90000 1.35531 -0.00334 -0.00353
46.00000 1.43329 -0.08505 -0.04718
46.10000 1.42053 -0.13954 -0.00154
46.20000 1.43116 0.08073 0.00337
46.30000 1.41207 0.10928 -0.07973
46.40000 1.46114 0.19674 0.03364
46.50000 1.35101 0.23283 0.00445
46.60000 1.36686 0.16684 -0.03894
46.70000 1.48556 0.19009 0.00600
46.80000 1.40620 0.17983 -0.05743
46.90000 1.33979 0.01591 0.01582
47.00000 1.43731 -0.18140 0.03716
47.10000 1.47703 -0.31385 -0.02717
47.20000 1.36833 -0.19024 0.04583
47.30000 1.43667 0.06330 -0.00230
47.40000 1.38666 0.18676 -0.04891
47.50000 1.45289 0.25084 0.03306
47.60000 1.44527 0.14660 0.01500
47.70000 1.47796 -0.11829 -0.00809
47.80000 1.42620 -0.21316 -0.01461
47.90000 1.38886 -0.00251 0.06903
48.00000 1.39093 0.08050 -0.00179
48.10000 1.43434 -0.01901 -0.02458
48.20000 1.36166 0.03013 0.01797
48.30000 1.40444 0.09246 0.04527
48.40000 1.44926 0.07852 -0.02904
48.50000 1.45488 0.09857 -0.00088
48.60000 1.41185 0.13934 0.06745
48.70000 1.41187 -0.01755 -0.00207
48.80000 1.41192 -0.00104 0.02556
48.90000 1.41722 0.01080 -0.01186
49.00000 1.39548 -0.09898 -0.01178
49.10000 1.38892 -0.07088 0.04793
49.20000 1.41321 0.12850 -0.00869
49.30000 1.46956 0.17621 -0.03633
49.40000 1.36966 0.21735 0.04507
49.50000 1.35195 0.15963 -0.00298
49.60000 1.45318 0.16629 -0.00416
49.70000 1.40762 0.25185 -0.02906
49.80000 1.33217 0.25099 0.04477
49.90000 1.45501 0.13914 0.06389
50.00000 1.43676 0.00455 0.01083
50.10000 1.39417 -0.22158 -0.01629
50.20000 1.42829 -0.40389 -0.00416
50.30000 1.47805 -0.32950 -0.03240
50.40000 1.40131 -0.15898 0.05201
50.50000 1.41338 -0.14195 0.02560
50.60000 1.40583 -0.00309 -0.00721
50.70000 1.41464 0.01918 -0.01328
50.80000 1.43823 -0.08972 0.05313
50.90000 1.38880 -0.23286 -0.04125
51.00000 1.40725 -0.08481 -0.03994
51.10000 1.46151 0.09029 0.04487
51.20000 1.39096 0.10540 -0.01069
51.30000 1.40723 0.10924 0.03862
51.40000 1.40023 -0.02675 -0.05551
51.50000 1.40136 -0.23306 -0.07024
51.60000 1.39748 -0.45157 0.02979
51.70000 1.44959 -0.26009 -0.02688
51.80000 1.45874 0.07677 -0.02803
51.90000 1.39592 0.21247 0.01827
52.00000 1.41888 -0.03301 0.05031
52.10000 1.45310 -0.09821 -0.01074
52.20000 1.46437 0.01495 -0.00978
52.30000 1.43753 0.01715 0.00426
52.40000 1.42217 -0.15508 0.04006
52.50000 1.39314 -0.16785 -0.00922
52.60000 1.42019 0.23752 -0.00884
52.70000 1.39434 0.37624 0.01444
52.80000 1.43696 0.19319 -0.03630
52.90000 1.38446 -0.06799 0.05591
53.00000 1.46499 -0.24113 -0.04911
53.10000 1.41029 -0.13679 0.00530
53.20000 1.37136 -0.11324 0.00642
53.30000 1.42169 -0.11854 -0.00614
53.40000 1.40438 0.04585 -0.02984
53.50000 1.44896 0.12502 -0.02413
53.60000 1.39688 0.16430 0.03190
53.70000 1.40760 0.19677 -0.03085
53.80000 1.39317 0.21361 0.03361
53.90000 1.40450 0.21514 0.00365
54.00000 1.37118 0.01199 0.00591
54.10000 1.39895 -0.25451 0.06397
54.20000 1.39299 -0.44270 -0.00074
54.30000 1.39112 -0.22986 -0.06530
54.40000 1.42278 -0.16967 0.01090
54.50000 1.40332 -0.06470 0.03869
54.60000 1.39782 -0.16122 -0.03753
54.70000 1.48230 -0.31445 0.00718
54.80000 1.39741 -0.31785 -0.03968
54.90000 1.35460 -0.09402 0.05143
55.00000 1.44587 0.16601 -0.02009
55.10000 1.47394 0.22728 -0.02436
55.20000 1.43538 0.24189 0.00351
55.30000 1.35681 0.11505 0.06580
55.40000 1.39111 0.07480 -0.00044
55.50000 1.44101 0.05255 -0.03547
55.60000 1.41492 0.01545 -0.01191
55.70000 1.37391 0.05792 -0.06347
55.80000 1.42276 -0.00381 0.00304
55.90000 1.38557 0.04420 -0.00646
56.00000 1.44724 0.01009 0.02819
56.10000 1.48807 -0.12198 0.01761
56.20000 1.39663 -0.13352 -0.02721
56.30000 1.41529 -0.14555 0.00816
56.40000 1.38675 -0.00485 0.01886
56.50000 1.42912 0.02208 -0.03997
56.60000 1.48980 -0.01393 0.02523
56.70000 1.41902 -0.10404 -0.03179
56.80000 1.39188 -0.06657 -0.01391
56.90000 1.47087 -0.02713 0.06060
57.00000 1.35303 -0.08525 0.00613
57.10000 1.42468 0.05420 -0.05117
57.20000 1.40273 0.17247 -0.00837
57.30000 1.41331 0.30085 -0.00233
57.40000 1.38488 0.18708 0.01023
57.50000 1.46365 0.10397 -0.00009
57.60000 1.37612 -0.02483 -0.04460
57.70000 1.45237 -0.22079 0.04979
57.80000 1.40853 -0.28037 0.01505
57.90000 1.38057 -0.21463 -0.02503
58.00000 1.41072 -0.33457 -0.03728
58.10000 1.41706 -0.27297 -0.00601
58.20000 1.40220 -0.00915 -0.03942
58.30000 1.42373 0.11044 0.06211
58.40000 1.36390 0.11712 -0.00113
58.50000 1.41535 -0.22386 -0.02976
58.60000 1.48525 -0.17824 0.02809
58.70000 1.38177 -0.03342 0.00387
58.80000 1.39068 -0.11059 -0.04895
58.90000 1.44588 -0.06761 -0.02954
59.00000 1.42097 -0.00055 0.03088
59.10000 1.33883 -0.23670 -0.00024
59.20000 1.43983 -0.19439 0.01523
59.30000 1.35668 -0.00689 0.00464
59.40000 1.45770 0.19501 0.04657
59.50000 1.46864 0.11081 0.01183
59.60000 1.42772 -0.01669 -0.03842
59.70000 1.39515 0.13115 -0.03945
59.80000 1.38698 -0.00795 -0.01413
59.90000 1.42888 -0.14061 -0.01496
60.00000 1.44444 0.03699 0.04240
60.10000 1.38722 0.02109 0.00188
60.20000 1.43807 -0.04198 -0.05184
60.30000 1.46392 -0.09423 -0.04813
60.40000 1.42830 -0.12658 0.00993
60.50000 1.45287 0.03250 0.02058
60.60000 1.37799 0.36716 -0.03956
60.70000 1.41597 0.35273 -0.02101
60.80000 1.40224 0.16457 0.06440
60.90000 1.42272 0.12907 0.00349
61.00000 1.41815 -0.12137 -0.02059
61.10000 1.41233 -0.14163 0.00882
61.20000 1.39358 -0.01277 0.02942
61.30000 1.34981 0.16322 -0.00955
61.40000 1.49145 0.16104 0.01509
61.50000 1.41539 0.27836 -0.06090
61.60000 1.39332 0.27628 -0.00357
61.70000 1.40249 -0.05040 0.03670
61.80000 1.44559 -0.21675 -0.05595
61.90000 1.38890 -0.29807 0.00975
62.00000 1.37681 -0.30401 0.01249
62.10000 1.42124 -0.24706 0.01050
62.20000 1.44204 -0.31485 -0.01479
62.30000 1.44511 -0.13282 -0.05011
62.40000 1.29780 0.03987 0.03077
62.50000 1.46889 0.10228 0.00899
62.60000 1.43383 0.16069 0.03700
62.70000 1.37307 0.31617 -0.05111
62.80000 1.35519 0.27180 0.03383
62.90000 1.44358 0.01781 0.01097
63.00000 1.44096 -0.18088 0.00077
63.10000 1.36487 -0.23072 0.02308
63.20000 1.42806 -0.25691 0.03448
63.30000 1.43964 -0.30141 -0.01994
63.40000 1.41560 -0.12559 -0.04501
63.50000 1.42612 0.04888 0.02126
63.60000 1.43156 0.07034 0.05718
63.70000 1.46240 0.02402 -0.07467
63.80000 1.41012 -0.08998 -0.03799
63.90000 1.40557 -0.20484 0.04691
64.00000 1.46629 -0.21642 -0.03291
64.10000 1.42139 -0.03921 0.03669
64.20000 1.40048 0.09537 0.07697
64.30000 1.40517 0.09913 0.02203
64.40000 1.42087 -0.06868 -0.02624
64.50000 1.43288 -0.22972 -0.02682
64.60000 1.44963 -0.23699 0.04349
64.70000 1.38226 -0.06047 -0.02853
64.80000 1.40646 -0.07347 -0.03300
64.90000 1.48191 0.02406 0.01023
65.00000 1.40718 0.12274 0.03934
65.10000 1.41383 0.09780 -0.00218
65.20000 1.48143 -0.07241 -0.04261
65.30000 1.41398 -0.17967 0.06372
65.40000 1.40676 -0.19454 -0.01477
65.50000 1.40473 -0.13766 0.00013
65.60000 1.41732 -0.04737 0.02295
65.70000 1.44612 -0.06371 0.00079
65.80000 1.42301 -0.03550 -0.08322
65.90000 1.45531 -0.04421 0.06905
66.00000 1.38576 -0.01500 -0.03447
66.10000 1.40100 0.14993 -0.01536
66.20000 1.38834 -0.01409 0.01048
66.30000 1.45425 -0.27536 -0.04156
66.40000 1.34063 -0.22141 0.00141
66.50000 1.40654 0.04113 0.06188
66.60000 1.44590 0.25101 0.03778
66.70000 1.41265 0.23524 -0.00390
66.80000 1.44387 0.05027 -0.00915
66.90000 1.37581 -0.10104 -0.03590
67.00000 1.41915 -0.30632 0.08039
67.10000 1.39371 -0.01388 -0.03456
67.20000 1.38629 0.22799 -0.05282
67.30000 1.42989 0.17244 0.02211
67.40000 1.43156 -0.01090 0.00932
67.50000 1.42055 -0.01891 -0.00845
67.60000 1.40609 -0.08678 -0.01429
67.70000 1.40885 -0.05722 0.03113
67.80000 1.39581 0.01982 0.01630
67.90000 1.45624 0.19656 -0.01711
68.00000 1.37706 0.32815 0.00591
68.10000 1.41792 0.39193 0.00933
68.20000 1.38592 0.10188 -0.02754
68.30000 1.42008 -0.12772 -0.06874
68.40000 1.41544 -0.11513 0.07677
68.50000 1.43158 -0.07238 0.01939
68.60000 1.41803 0.03780 -0.03965
68.70000 1.39935 0.05756 0.06364
68.80000 1.47276 0.05715 -0.01989
68.90000 1.38300 0.11139 -0.02832
69.00000 1.37421 -0.22973 -0.00370
69.10000 1.46118 -0.31127 0.00296
69.20000 1.38333 -0.07370 -0.02645
69.30000 1.43697 0.17463 0.05404
69.40000 1.41228 0.27970 0.05809
69.50000 1.44116 0.18020 -0.02546
69.60000 1.45115 -0.01433 0.00067
69.70000 1.39383 -0.02838 0.00460
69.80000 1.35724 0.01135 -0.00273
69.90000 1.38416 -0.16162 0.02161
70.00000 1.42048 -0.21030 -0.03670
70.10000 1.43003 -0.11427 0.01336
70.20000 1.39294 -0.02443 0.01555
70.30000 1.35370 -0.14956 -0.01392
70.40000 1.45568 -0.28694 0.00137
70.50000 1.43025 -0.25822 -0.04890
70.60000 1.46275 0.13766 -0.03146
70.70000 1.38440 0.34102 0.05370
70.80000 1.42259 0.19185 -0.01586
70.90000 1.36436 0.08661 -0.04603
71.00000 1.43557 0.00611 0.00646
71.10000 1.44515 0.08721 -0.00182
71.20000 1.41774 0.33385 -0.00982
71.30000 1.30143 0.28857 0.02339
71.40000 1.49087 0.11737 -0.05428
71.50000 1.41619 0.01205 0.01408
71.60000 1.35981 0.10831 0.02768
71.70000 1.43495 -0.00456 -0.01944
71.80000 1.41310 -0.16380 -0.04386
71.90000 1.39458 -0.12761 -0.03107
72.00000 1.43484 -0.17493 0.00365
72.10000 1.41831 0.00657 0.00797
72.20000 1.43511 0.06039 0.00232
72.30000 1.42284 0.03141 -0.01333
72.40000 1.37996 0.05278 0.02579
72.50000 1.40025 0.19204 0.04256
72.60000 1.41985 0.09184 -0.02849
72.70000 1.47510 0.04029 -0.01855
72.80000 1.42501 0.03628 0.01134
72.90000 1.32871 0.01432 0.03598
73.00000 1.40148 0.05778 0.06352
73.10000 1.43587 0.24248 -0.01856
73.20000 1.41253 0.30672 -0.01040
73.30000 1.41533 0.18742 0.07511
73.40000 1.39929 0.11490 0.00274
73.50000 1.39132 -0.02023 -0.03901
73.60000 1.36964 -0.32849 -0.00594
73.70000 1.48020 -0.40930 -0.01046
73.80000 1.36991 -0.24864 -0.05741
73.90000 1.43999 0.01456 0.02676
74.00000 1.31731 0.09069 0.04183
74.10000 1.48345 0.03788 -0.05607
74.20000 1.48098 0.02611 0.05627
74.30000 1.33576 0.00307 0.02891
74.40000 1.42749 -0.03461 -0.06386
74.50000 1.47574 -0.14264 0.02833
74.60000 1.44101 -0.11025 0.03993
74.70000 1.33726 -0.15602 -0.02539
74.80000 1.42248 0.02613 -0.00832
74.90000 1.40762 0.09005 0.05315
75.00000 1.47795 0.02294 -0.03244
75.10000 1.47149 -0.05877 -0.03996
75.20000 1.35717 0.06275 0.08834
75.30000 1.41712 0.14841 0.00631
75.40000 1.44108 0.24780 -0.07748
75.50000 1.35358 0.26388 0.01516
75.60000 1.44382 0.14929 0.06603
75.70000 1.42327 0.21344 0.01026
75.80000 1.41464 0.10602 -0.03931
75.90000 1.40579 -0.13212 -0.00358
76.00000 1.39903 -0.26698 -0.04420
76.10000 1.43527 -0.22510 -0.02090
76.20000 1.44090 -0.13684 0.03246
76.30000 1.40578 0.20410 0.01013
76.40000 1.45285 0.32253 -0.01114
76.50000 1.44762 0.17256 -0.00599
76.60000 1.42287 0.04166 0.00830
76.70000 1.40061 -0.01328 0.04166
76.80000 1.40415 0.04672 -0.03654
76.90000 1.45173 -0.02923 -0.01031
77.00000 1.36781 0.03642 -0.01057
77.10000 1.45995 0.01069 0.02400
77.20000 1.42152 0.01441 0.02831
77.30000 1.36963 -0.00068 -0.00265
77.40000 1.38520 -0.05099 -0.04462
77.50000 1.40907 -0.16223 -0.04321
77.60000 1.43526 -0.01417 0.07098
77.70000 1.42721 0.14350 -0.01038
77.80000 1.36575 0.04783 0.02393
77.90000 1.41659 -0.03580 -0.00728
78.00000 1.43870 -0.28969 -0.00926
78.10000 1.38419 -0.40769 0.00907
78.20000 1.47843 -0.16275 -0.00675
78.30000 1.35166 0.09789 -0.03711
78.40000 1.40378 0.00044 0.06536
78.50000 1.42412 -0.06346 0.00398
78.60000 1.43037 -0.11279 -0.01928
78.70000 1.38609 -0.14765 -0.02201
78.80000 1.42995 -0.14810 0.08641
78.90000 1.42872 -0.09190 -0.01075
79.00000 1.40615 -0.24355 -0.11614
79.10000 1.44404 -0.22446 0.08086
79.20000 1.42840 0.11700 0.00701
79.30000 1.46592 0.38726 -0.05384
79.40000 1.30312 0.32282 0.02945
79.50000 1.43871 0.04774 -0.04345
79.60000 1.47589 -0.24944 -0.01203
79.70000 1.37995 -0.34852 0.05118
79.80000 1.35422 -0.05004 -0.04671
79.90000 1.42599 0.06006 0.00366
80.00000 1.42929 -0.17614 0.00464
80.10000 1.39477 -0.30599 -0.00015
80.20000 1.38665 -0.32951 -0.01667
80.30000 1.43464 -0.30009 -0.00236
80.40000 1.38819 -0.33758 -0.02554
80.50000 1.38585 -0.32694 0.00828
80.60000 1.45470 -0.16789 0.03581
80.70000 1.39636 -0.08502 -0.01663
80.80000 1.40882 -0.05574 -0.00780
80.90000 1.46318 -0.07497 -0.02820
81.00000 1.36735 0.11948 -0.04568
81.10000 1.39600 0.23241 0.03637
81.20000 1.44839 0.16346 0.01622
81.30000 1.39375 -0.02299 -0.06438
81.40000 1.42597 -0.08698 0.00008
81.50000 1.45797 -0.01663 0.03878
81.60000 1.39792 -0.00858 -0.00117
81.70000 1.39918 -0.19563 -0.00426
81.80000 1.39946 -0.15972 -0.00697
81.90000 1.47679 -0.01048 0.02682
82.00000 1.41234 0.17609 0.00382
82.10000 1.38811 0.00314 -0.03462
82.20000 1.43914 -0.01418 0.03163
82.30000 1.34967 -0.03203 0.06731
82.40000 1.43279 0.09615 -0.07777
82.50000 1.45770 0.19933 -0.02730
82.60000 1.38130 0.19173 0.08724
82.70000 1.43522 0.10153 -0.01988
82.80000 1.42751 0.27474 -0.08389
82.90000 1.39721 0.21467 0.00607
83.00000 1.42087 0.03864 0.04630
83.10000 1.36481 -0.10733 0.01624
83.20000 1.42985 -0.05705 -0.01705
83.30000 1.42995 0.16329 0.01834
83.40000 1.38229 0.08191 -0.03341
83.50000 1.41161 -0.02888 0.01505
83.60000 1.46923 -0.15014 -0.00278
83.70000 1.37966 -0.05538 -0.03139
83.80000 1.41557 0.19016 0.02843
83.90000 1.40030 -0.14758 0.01386
84.00000 1.45517 -0.11281 -0.03391
84.10000 1.43739 -0.01107 0.04713
84.20000 1.38968 -0.07744 -0.03143
84.30000 1.44903 -0.13340 -0.04025
84.40000 1.47349 -0.07083 0.01705
84.50000 1.36184 -0.00612 0.00369
84.60000 1.39161 0.06383 -0.01115
84.70000 1.47154 0.01227 -0.06369
84.80000 1.47624 -0.10987 -0.02481
84.90000 1.39875 -0.23419 0.00576
85.00000 1.46283 -0.42899 -0.00539
85.10000 1.35654 -0.47888 0.01279
85.20000 1.39297 -0.34306 -0.00409
85.30000 1.45114 -0.06704 -0.08096
85.40000 1.48193 0.14163 0.04041
85.50000 1.41080 0.15336 0.04564
85.60000 1.41611 -0.07953 -0.02082
85.70000 1.40732 -0.28937 -0.02241
85.80000 1.43680 -0.21422 0.02147
85.90000 1.43470 -0.08374 0.03614
86.00000 1.37173 0.04652 -0.00585
86.10000 1.45763 0.09282 -0.01724
86.20000 1.39009 0.18627 0.04074
86.30000 1.38859 0.08662 -0.01115
86.40000 1.47057 -0.19597 -0.03724
86.50000 1.41473 -0.27552 0.01544
86.60000 1.37420 -0.06066 0.00115
86.70000 1.46096 0.03562 -0.05280
86.80000 1.44156 -0.05012 0.04036
86.90000 1.36708 0.05871 0.03285
87.00000 1.45260 0.09309 0.01958
87.10000 1.44335 -0.01154 -0.02996
87.20000 1.43664 0.01853 0.01393
87.30000 1.45262 0.06102 -0.03001
87.40000 1.36847 0.17922 -0.03153
87.50000 1.40753 0.21925 0.02222
87.60000 1.44699 0.18908 -0.02032
87.70000 1.44865 0.10833 0.02307
87.80000 1.35210 0.17157 -0.04922
87.90000 1.45972 0.13658 -0.04274
88.00000 1.48656 0.16689 0.01562
88.10000 1.36666 0.09781 0.01233
88.20000 1.38084 0.05492 0.00007
88.30000 1.41723 0.16943 -0.03779
88.40000 1.40947 0.11228 0.01445
88.50000 1.39124 -0.02229 -0.00808
88.60000 1.45630 -0.05906 -0.01966
88.70000 1.44046 -0.07857 -0.01804
88.80000 1.38811 -0.07912 -0.07011
88.90000 1.39934 -0.25001 0.03655
89.00000 1.40514 -0.34868 0.02820
89.10000 1.47803 -0.23508 0.03555
89.20000 1.41134 -0.06237 -0.03216
89.30000 1.36206 0.00277 -0.03471
89.40000 1.37587 -0.18263 0.01802
89.50000 1.42893 -0.25714 0.01978
89.60000 1.45644 0.01335 -0.03867
89.70000 1.37531 0.16391 -0.01608
89.80000 1.38981 0.09069 0.04473
89.90000 1.45552 0.00151 -0.00456
90.00000 1.43567 -0.06559 0.03078
90.10000 1.35494 -0.06648 -0.01605
90.20000 1.36533 0.02394 -0.00265
90.30000 1.42101 0.11641 0.01528
90.40000 1.39227 0.13770 -0.01755
90.50000 1.38993 0.00617 -0.02770
90.60000 1.37657 -0.18516 -0.00304
90.70000 1.42557 -0.08637 -0.00025
90.80000 1.48819 0.00444 0.07523
90.90000 1.39437 0.06311 -0.03949
91.00000 1.36495 0.04922 -0.01364
91.10000 1.43329 0.02755 -0.01070
91.20000 1.43926 0.12089 0.00832
91.30000 1.41262 0.12889 -0.05097
91.40000 1.39638 0.10453 0.03620
91.50000 1.44874 0.07437 0.05014
91.60000 1.43277 0.12336 -0.07026
91.70000 1.40600 -0.03055 0.05375
91.80000 1.40931 -0.16431 0.04723
91.90000 1.42475 -0.03053 -0.05383
92.00000 1.41081 0.19604 0.04364
92.10000 1.38102 0.11692 0.01433
92.20000 1.45553 -0.17501 -0.00928
92.30000 1.44490 -0.09425 0.01017
92.40000 1.39721 0.06510 -0.00320
92.50000 1.39845 0.18510 0.01270
92.60000 1.38546 0.23532 0.00000
92.70000 1.42815 0.39370 -0.01620
92.80000 1.41648 0.24304 -0.06596
92.90000 1.41671 -0.01997 0.01935
93.00000 1.45649 -0.12162 0.02429
93.10000 1.43794 -0.19512 0.02717
93.20000 1.39334 -0.03087 -0.04467
93.30000 1.38126 0.13573 0.03285
93.40000 1.42226 0.12865 0.05416
93.50000 1.50252 0.09746 0.00420
93.60000 1.37562 -0.02360 -0.00387
93.70000 1.44021 -0.11876 -0.02172
93.80000 1.43353 -0.06532 0.05275
93.90000 1.40624 0.06737 -0.02652
94.00000 1.35307 0.13214 -0.02725
94.10000 1.43422 0.23247 -0.01085
94.20000 1.38719 0.12869 -0.00624
94.30000 1.39818 -0.08869 0.04463
94.40000 1.38452 -0.17920 -0.02636
94.50000 1.41433 -0.23308 -0.06318
94.60000 1.43320 -0.09470 0.04623
94.70000 1.37554 0.02603 0.08316
94.80000 1.48858 0.10447 -0.02545
94.90000 1.47021 -0.04005 -0.09569
95.00000 1.34576 -0.03158 -0.00673
95.10000 1.43691 -0.01183 -0.00708
95.20000 1.44723 -0.31692 0.01105
95.30000 1.42734 -0.28201 0.03376
95.40000 1.38593 -0.17845 -0.04269
95.50000 1.40454 -0.14236 0.06517
95.60000 1.44203 -0.19861 0.01051
95.70000 1.43828 -0.17312 -0.05952
95.80000 1.38723 0.09432 0.02896
95.90000 1.40734 0.40386 -0.00524
96.00000 1.41926 0.36231 0.01844
96.10000 1.37523 0.14060 -0.00325
96.20000 1.43423 -0.08249 -0.04307
96.30000 1.45497 0.08699 0.05441
96.40000 1.40874 0.06015 0.02676
96.50000 1.38972 -0.05075 -0.02408
96.60000 1.47982 0.02852 -0.00294
96.70000 1.49537 0.08183 0.02444
96.80000 1.37344 0.18415 0.02318
96.90000 1.43643 0.07681 0.00890
97.00000 1.42405 -0.13008 -0.03396
97.10000 1.41295 -0.03417 -0.03497
97.20000 1.43789 -0.05511 0.07005
97.30000 1.38096 -0.22862 -0.03107
97.40000 1.44318 -0.36984 -0.04665
97.50000 1.41838 -0.13912 0.09880
97.60000 1.42413 0.08449 0.01834
97.70000 1.37981 0.01495 -0.04203
97.80000 1.45724 0.00754 0.01442
97.90000 1.38678 0.13079 0.01846
98.00000 1.42824 0.16135 0.00209
98.10000 1.45878 0.10944 0.03442
98.20000 1.36365 0.06834 0.00842
98.30000 1.38007 -0.14585 0.04087
98.40000 1.46013 -0.15041 -0.00664
98.50000 1.43065 -0.12458 -0.02986
98.60000 1.44796 -0.12548 -0.04384
98.70000 1.39883 0.03746 -0.02318
98.80000 1.42873 0.05853 0.07708
98.90000 1.43360 -0.06779 -0.02086
99.00000 1.38741 -0.10809 0.02073
99.10000 1.42387 0.04314 -0.00802
99.20000 1.41986 0.26738 -0.03392
99.30000 1.37906 0.26174 -0.04302
99.40000 1.43941 0.07231 -0.04172
99.50000 1.38710 -0.06422 -0.03018
99.60000 1.45951 -0.02686 0.05792
99.70000 1.37676 -0.04324 -0.03074
99.80000 1.37970 -0.21579 -0.03122
99.90000 1.44798 -0.20352 -0.02470
100.00000 1.40932 -0.06366 0.04382
100.10000 1.41980 0.05853 -0.01331
100.20000 1.41219 0.21071 -0.02469
100.30000 1.37835 0.27585 -0.01088
100.40000 1.38304 0.08008 0.02545
100.50000 1.46256 -0.18270 -0.01996
100.60000 1.47081 -0.05210 -0.05181
100.70000 1.39515 0.17689 0.01868
100.80000 1.34684 0.28173 0.02012
100.90000 1.48601 0.38081 -0.03223
101.00000 1.38462 0.33300 0.02891
101.10000 1.40958 0.21926 0.02600
101.20000 1.39592 -0.12614 0.00980
101.30000 1.44890 -0.47076 -0.01480
101.40000 1.42082 -0.53363 -0.04194
101.50000 1.43169 -0.33621 0.05578
101.60000 1.38292 -0.07639 0.00744
101.70000 1.41962 -0.04687 -0.05025
101.80000 1.46598 -0.19711 0.07668
101.90000 1.41364 -0.06460 -0.02693
102.00000 1.38878 0.18192 -0.02521
102.10000 1.46430 0.10843 0.00361
102.20000 1.40769 -0.02331 -0.01167
102.30000 1.40616 -0.06430 0.03262
102.40000 1.41265 0.00618 0.03665
102.50000 1.43888 0.11824 -0.01950
102.60000 1.42380 0.16737 -0.02558
102.70000 1.37687 0.14254 0.02546
102.80000 1.39220 0.10571 0.00904
102.90000 1.45276 0.11713 -0.03714
103.00000 1.43229 -0.01675 0.06544
103.10000 1.41219 -0.18698 0.01226
103.20000 1.40939 -0.13244 0.00065
103.30000 1.45205 0.00433 0.03968
103.40000 1.43219 0.13924 0.02770
103.50000 1.39215 0.10914 0.00076
103.60000 1.45162 0.09436 -0.03285
103.70000 1.48389 0.12484 -0.00151
103.80000 1.42958 0.21531 0.04705
103.90000 1.43216 -0.03520 -0.04536
104.00000 1.40959 -0.03594 -0.07422
104.10000 1.44069 -0.02404 -0.01828
104.20000 1.34234 -0.01584 0.01055
104.30000 1.40734 -0.07753 0.03371
104.40000 1.51695 -0.11879 -0.05793
104.50000 1.34672 0.06517 -0.03047
104.60000 1.36650 0.14525 0.04668
104.70000 1.48386 0.06330 -0.01960
104.80000 1.45374 -0.06190 -0.04384
104.90000 1.34027 -0.01584 0.02818
105.00000 1.38016 0.21850 -0.05537
105.10000 1.40298 0.29870 -0.03760
105.20000 1.38943 0.12348 0.05319
105.30000 1.41999 -0.16302 0.02628
105.40000 1.37955 -0.07124 -0.01688
105.50000 1.43796 0.06193 -0.04066
105.60000 1.42159 -0.06760 0.06310
105.70000 1.34581 -0.13524 -0.01022
105.80000 1.41690 -0.15446 -0.04720
105.90000 1.48386 -0.19126 -0.02193
106.00000 1.39803 -0.11479 0.01694
106.10000 1.42265 0.03421 0.05677
106.20000 1.35453 -0.07192 -0.05316
106.30000 1.43957 -0.12296 0.04266
106.40000 1.44132 -0.14112 0.03598
106.50000 1.42026 -0.21355 -0.00906
106.60000 1.42457 -0.24090 -0.00447
106.70000 1.43303 -0.17804 0.01518
106.80000 1.46524 0.17982 0.02410
106.90000 1.46531 0.18460 0.03846
107.00000 1.40880 0.10048 -0.06752
107.10000 1.38404 -0.06590 -0.03755
107.20000 1.41477 -0.20531 0.06432
107.30000 1.44546 -0.07417 -0.02665
107.40000 1.37154 -0.06958 -0.06993
107.50000 1.40489 -0.09705 0.00060
107.60000 1.43599 -0.02064 0.10572
107.70000 1.45054 0.24111 -0.02287
107.80000 1.38539 0.17969 -0.04128
107.90000 1.41659 0.09226 0.00320
108.00000 1.42399 0.02395 -0.01593
108.10000 1.44808 0.25492 0.03218
108.20000 1.41731 0.25957 -0.08484
108.30000 1.41232 0.30800 -0.02909
108.40000 1.37886 0.21508 0.08463
108.50000 1.46078 0.18652 -0.01830
108.60000 1.45708 -0.00935 -0.01847
108.70000 1.40852 -0.21864 0.03099
108.80000 1.44443 -0.20796 -0.01493
108.90000 1.36914 -0.16923 -0.04749
109.00000 1.46755 -0.17917 0.01468
109.10000 1.36636 -0.13872 0.01947
109.20000 1.37114 0.05563 -0.03873
109.30000 1.48122 0.14061 0.00962
109.40000 1.44287 -0.06657 0.01378
109.50000 1.37522 -0.12929 -0.01603
109.60000 1.50776 -0.04721 -0.03101
109.70000 1.39423 0.11130 0.02353
109.80000 1.44170 0.09956 -0.06850
109.90000 1.40613 0.07868 0.04174
110.00000 1.38068 0.06592 -0.00669
110.10000 1.38774 0.05972 0.02898
110.20000 1.44219 -0.01392 -0.00469
110.30000 1.38128 0.16562 0.02239
110.40000 1.38731 -0.02091 0.03907
110.50000 1.41396 -0.27150 -0.00903
110.60000 1.39405 -0.37235 0.03617
110.70000 1.39877 -0.28822 0.00676
110.80000 1.41722 -0.05803 -0.03789
110.90000 1.45579 0.01765 0.02182
111.00000 1.38459 0.03596 0.04242
111.10000 1.38952 0.01051 0.02577
111.20000 1.43208 -0.21491 -0.08208
111.30000 1.38633 -0.19981 0.01199
111.40000 1.51453 -0.10695 0.02921
111.50000 1.39888 0.03710 0.02098
111.60000 1.37193 0.16257 0.03515
111.70000 1.45999 0.10714 -0.00531
111.80000 1.45851 0.27028 0.03147
111.90000 1.38895 0.24993 -0.03941
112.00000 1.42149 0.08881 -0.00800
112.10000 1.42074 -0.07591 -0.00105
112.20000 1.44217 -0.03152 0.04362
112.30000 1.34897 0.01869 0.05098
112.40000 1.41499 -0.00362 0.01987
112.50000 1.45753 -0.02688 0.01495
112.60000 1.41745 -0.08388 -0.06822
112.70000 1.42909 -0.08168 0.08658
112.80000 1.43479 -0.06763 -0.03538
112.90000 1.37871 0.13010 0.02412
113.00000 1.40454 0.03546 -0.04968
113.10000 1.39293 -0.09387 -0.00025
113.20000 1.38430 -0.04829 -0.03861
113.30000 1.45260 0.02860 0.00952
113.40000 1.36582 0.12356 -0.05924
113.50000 1.40592 0.30923 0.01937
113.60000 1.45153 0.23785 -0.00488
113.70000 1.42924 -0.19077 0.02213
113.80000 1.39975 -0.30550 0.01244
113.90000 1.41944 -0.02881 -0.00102
114.00000 1.39669 0.15526 0.03316
114.10000 1.36179 0.18786 0.02777
114.20000 1.39420 0.27617 -0.03812
114.30000 1.43871 0.38544 0.01824
114.40000 1.45775 0.08239 0.01919
114.50000 1.39588 -0.17149 -0.08666
114.60000 1.36508 -0.20352 0.02832
114.70000 1.48968 -0.05812 0.10146
114.80000 1.37435 -0.05821 -0.03543
114.90000 1.36330 -0.04881 -0.03408
115.00000 1.42830 -0.06379 0.05032
115.10000 1.46086 -0.04372 -0.03196
115.20000 1.41850 0.07701 -0.00362
115.30000 1.40970 -0.05140 0.01017
115.40000 1.38431 -0.03854 0.02480
115.50000 1.41573 -0.00149 0.00416
115.60000 1.41268 -0.07246 -0.03162
115.70000 1.41429 0.03530 0.00142
115.80000 1.38656 -0.20478 0.02922
115.90000 1.41332 -0.18697 -0.01463
116.00000 1.38402 -0.11052 -0.00895
116.10000 1.35696 -0.05283 -0.00396
116.20000 1.44641 0.11450 0.02856
116.30000 1.44311 0.12926 -0.02062
116.40000 1.40456 -0.09408 0.01910
116.50000 1.31105 -0.21739 -0.01131
116.60000 1.44695 -0.02755 0.02595
116.70000 1.45439 0.04985 0.05082
116.80000 1.40835 0.06193 -0.03725
116.90000 1.42061 0.05105 0.03365
117.00000 1.35254 -0.18391 0.02183
117.10000 1.38721 -0.27871 -0.00385
117.20000 1.45635 -0.14975 0.04528
117.30000 1.41277 0.11499 -0.03654
117.40000 1.41461 0.30989 0.01614
117.50000 1.42575 0.20971 0.02127
117.60000 1.49726 0.02415 0.01627
117.70000 1.38572 -0.06332 -0.00670
117.80000 1.40425 -0.05809 -0.02622
117.90000 1.48533 -0.06480 0.00273
118.00000 1.42406 0.31033 -0.00578
118.10000 1.40753 0.38483 -0.03643
118.20000 1.43280 0.18677 -0.02360
118.30000 1.42708 0.04128 0.05236
118.40000 1.45103 -0.11564 0.00889
118.50000 1.39404 -0.00176 -0.03629
118.60000 1.41278 -0.12500 -0.02704
118.70000 1.39807 -0.19402 -0.00877
118.80000 1.39661 -0.13155 0.00454
118.90000 1.39724 0.00138 0.02928
119.00000 1.44274 0.05359 0.00754
119.10000 1.43094 -0.20026 -0.03588
119.20000 1.32450 -0.23523 0.04209
119.30000 1.40727 0.14876 -0.00224
119.40000 1.43100 0.36317 -0.04707
119.50000 1.44740 0.24822 0.01245
119.60000 1.47061 -0.02648 -0.00315
119.70000 1.39393 -0.08634 0.01232
119.80000 1.40874 0.05629 -0.02265
119.90000 1.45978 0.26102 -0.01262
120.00000 1.41761 0.22833 0.01321
120.10000 1.42541 0.14768 -0.03824
120.20000 1.37422 0.13867 0.05761
120.30000 1.40609 0.03170 0.01837
120.40000 1.42181 -0.18265 -0.01424
120.50000 1.45071 -0.35436 -0.00530
120.60000 1.38081 -0.25689 0.06993
120.70000 1.37628 -0.04036 0.02832
120.80000 1.43936 0.03365 -0.08023
120.90000 1.44296 -0.08075 0.02255
121.00000 1.46481 -0.03846 0.01029
121.10000 1.41527 -0.02203 0.08602
121.20000 1.37438 -0.11391 -0.03067
121.30000 1.36061 -0.24900 -0.02974
121.40000 1.39166 -0.36621 0.04973
121.50000 1.45349 -0.31569 -0.02239
121.60000 1.42442 -0.12253 -0.01601
121.70000 1.40478 0.08172 0.00604
121.80000 1.39636 0.24920 0.01679
121.90000 1.44152 0.19202 -0.00980
122.00000 1.39896 0.05120 -0.02543
122.10000 1.41153 0.04643 0.02708
122.20000 1.40797 0.10844 0.00984
122.30000 1.43557 -0.00158 -0.03582
122.40000 1.45769 0.17785 -0.04122
122.50000 1.42416 0.17906 -0.02401
122.60000 1.38004 0.09442 -0.01530
122.70000 1.40288 0.06611 0.03918
122.80000 1.41932 0.22355 -0.03610
122.90000 1.41543 0.06813 -0.03076
123.00000 1.41488 -0.08247 0.01095
123.10000 1.43839 -0.21051 0.03675
123.20000 1.45586 -0.16384 -0.03810
123.30000 1.39855 0.05123 -0.03123
123.40000 1.38402 0.21752 0.02477
123.50000 1.43097 0.13034 -0.02560
123.60000 1.44068 0.07537 0.00711
123.70000 1.38295 -0.07348 0.05666
123.80000 1.44821 -0.09954 -0.00987
123.90000 1.41181 -0.16505 -0.03042
124.00000 1.38182 0.02443 0.07660
124.10000 1.44492 0.17414 0.01292
124.20000 1.39154 0.03129 -0.08986
124.30000 1.39832 -0.11058 0.01543
124.40000 1.35607 -0.20714 0.06064
124.50000 1.42340 -0.23495 0.00338
124.60000 1.35662 -0.11538 -0.00265
124.70000 1.49428 -0.10384 -0.01682
124.80000 1.43970 -0.03298 -0.02047
124.90000 1.40307 0.12269 -0.01102
125.00000 1.39168 -0.05298 0.02016
125.10000 1.36093 -0.25997 0.03735
125.20000 1.42509 -0.27575 -0.04042
125.30000 1.45963 0.24919 -0.04062
125.40000 1.45226 0.56213 0.03271
125.50000 1.44914 0.25512 0.02120
125.60000 1.38104 -0.03210 -0.00223
125.70000 1.41936 -0.02644 0.00654
125.80000 1.39119 -0.12124 0.02498
125.90000 1.40789 -0.22512 0.01742
126.00000 1.47227 -0.32317 -0.00663
126.10000 1.43038 -0.29629 0.02340
126.20000 1.40728 -0.07433 0.06160
126.30000 1.38144 0.13946 -0.06626
126.40000 1.42608 0.17375 0.02692
126.50000 1.38564 0.07710 -0.02243
126.60000 1.38161 -0.19459 -0.08192
126.70000 1.40160 -0.23517 -0.01540
126.80000 1.43467 -0.21252 -0.00092
126.90000 1.35704 0.15560 -0.04143
127.00000 1.44258 0.22926 0.02032
127.10000 1.45025 -0.11815 -0.01285
127.20000 1.39116 -0.36144 0.00866
127.30000 1.46618 -0.10084 0.06182
127.40000 1.42076 0.22491 0.00573
127.50000 1.40251 0.08374 -0.06554
127.60000 1.40923 -0.15988 0.03474
127.70000 1.42222 -0.13043 -0.04078
127.80000 1.41896 -0.00783 -0.04748
127.90000 1.42171 -0.12002 0.03991
128.00000 1.44591 -0.12102 -0.01483
128.10000 1.36848 -0.10789 -0.01538
128.20000 1.40600 0.10955 0.04418
128.30000 1.40584 0.02840 -0.04324
128.40000 1.41520 -0.11992 -0.04999
128.50000 1.40253 -0.01418 0.01785
128.60000 1.41849 0.19023 0.02127
128.70000 1.44772 0.22408 -0.05870
128.80000 1.40909 0.04000 -0.00231
128.90000 1.42681 -0.10400 0.07364
129.00000 1.41376 -0.15545 0.03748
129.10000 1.39770 -0.23808 -0.05654
129.20000 1.37880 0.00721 -0.04939
129.30000 1.41990 0.15085 0.02211
129.40000 1.41329 0.15894 0.03585
129.50000 1.42977 0.06731 -0.04731
129.60000 1.35266 -0.05699 0.04988
129.70000 1.50599 -0.09263 -0.02385
129.80000 1.36926 0.04407 -0.02199
129.90000 1.43815 -0.01557 -0.03548
130.00000 1.44112 -0.11316 0.00094
130.10000 1.41266 -0.09895 -0.00907
130.20000 1.42912 0.00981 0.05255
130.30000 1.40259 -0.06094 -0.01396
130.40000 1.35588 -0.01737 -0.03122
130.50000 1.38788 -0.05790 -0.06795
130.60000 1.38676 0.07340 0.08999
130.70000 1.40703 0.19475 -0.00632
130.80000 1.39965 0.21129 -0.05753
130.90000 1.46882 0.06768 0.02274
131.00000 1.42155 0.02293 -0.00986
131.10000 1.41464 -0.03753 -0.04389
131.20000 1.39589 -0.10898 0.03264
131.30000 1.44745 -0.20315 0.02500
131.40000 1.40124 -0.25716 -0.07265
131.50000 1.35319 -0.30163 0.03841
131.60000 1.45424 -0.17442 0.03616
131.70000 1.42628 0.13758 -0.05432
131.80000 1.39830 0.28690 0.00685
131.90000 1.39839 0.23208 0.02651
132.00000 1.37915 0.03891 0.08457
132.10000 1.48751 0.02053 -0.01350
132.20000 1.45351 -0.03228 -0.02066
132.30000 1.33397 -0.08965 -0.04361
132.40000 1.37999 -0.21492 0.00010
132.50000 1.44662 -0.15296 -0.02156
132.60000 1.41596 0.15054 -0.00827
132.70000 1.43035 0.18916 0.03557
132.80000 1.47043 0.03656 0.00082
132.90000 1.30465 -0.14092 -0.00603
133.00000 1.47712 -0.12730 0.01665
133.10000 1.44815 -0.04375 0.00288
133.20000 1.36961 0.08658 -0.08990
133.30000 1.38574 -0.04048 -0.00625
133.40000 1.40706 -0.14742 0.06775
133.50000 1.38031 -0.30749 -0.05081
133.60000 1.44229 -0.34602 -0.00348
133.70000 1.46020 -0.23238 0.03195
133.80000 1.37189 -0.07777 0.04439
133.90000 1.41952 -0.02649 -0.05238
134.00000 1.35935 -0.08188 -0.06199
134.10000 1.42349 -0.26225 0.03719
134.20000 1.38246 -0.16751 0.07496
134.30000 1.34573 -0.00482 0.02998
134.40000 1.46456 -0.21642 -0.00679
134.50000 1.39855 -0.32159 -0.03246
134.60000 1.41021 -0.31439 -0.03680
134.70000 1.43351 -0.18666 -0.00208
134.80000 1.32403 -0.02735 -0.00218
134.90000 1.44450 -0.03402 -0.00136
135.00000 1.46980 -0.10018 0.02938
135.10000 1.34987 0.11716 -0.04616
135.20000 1.42900 0.26883 0.00340
135.30000 1.42059 0.14752 0.01132
135.40000 1.41355 0.08171 0.02170
135.50000 1.41114 -0.08501 0.03218
135.60000 1.40996 -0.11876 -0.02618
135.70000 1.38943 -0.05566 0.02804
135.80000 1.50168 -0.02827 0.00129
135.90000 1.41917 0.00770 -0.03278
136.00000 1.36309 0.18748 -0.03414
136.10000 1.45567 0.14719 0.02263
136.20000 1.37510 -0.01633 -0.01080
136.30000 1.37981 -0.25134 0.02674
136.40000 1.48300 -0.20164 -0.00785
136.50000 1.43348 -0.32341 0.04623
136.60000 1.39289 -0.25537 0.01515
136.70000 1.43662 -0.10268 -0.01523
136.80000 1.34399 0.03641 -0.04151
136.90000 1.42441 0.12480 -0.00412
137.00000 1.42932 0.34163 -0.00709
137.10000 1.41612 0.48365 0.01521
137.20000 1.45743 0.33249 -0.05820
137.30000 1.44121 -0.01375 0.01845
137.40000 1.42151 -0.12157 -0.06410
137.50000 1.39022 -0.12522 0.03131
137.60000 1.42672 -0.06066 0.02181
137.70000 1.41643 -0.05351 -0.01247
137.80000 1.42648 0.04460 -0.02154
137.90000 1.42465 0.11458 0.02138
138.00000 1.43895 0.01679 -0.02598
138.10000 1.43052 0.08067 0.04263
138.20000 1.37516 -0.08685 0.04401
138.30000 1.39536 -0.08140 -0.04485
138.40000 1.47215 0.07751 0.01349
138.50000 1.38382 0.24886 0.01009
138.60000 1.40303 0.31511 0.02741
138.70000 1.45207 0.30284 -0.00784
138.80000 1.39627 0.12686 -0.06838
138.90000 1.38534 -0.05597 0.07938
139.00000 1.43273 -0.04222 -0.02670
139.10000 1.34953 -0.02014 -0.01824
139.20000 1.40718 0.02919 0.00349
139.30000 1.42994 0.06999 -0.00636
139.40000 1.43127 -0.01114 -0.05034
139.50000 1.40723 0.03814 0.03989
139.60000 1.47535 0.11143 -0.02912
139.70000 1.41761 0.05119 -0.05088
139.80000 1.40353 0.07973 0.01861
139.90000 1.39177 0.07522 0.06338
140.00000 1.44684 0.02567 0.00612
140.10000 1.36990 0.01532 -0.05406
140.20000 1.39442 -0.00294 0.01070
140.30000 1.38532 -0.03719 0.02091
140.40000 1.40361 -0.01247 0.00513
140.50000 1.46712 0.04763 0.01302
140.60000 1.33403 0.08648 -0.00910
140.70000 1.39778 -0.05414 -0.02607
140.80000 1.50381 -0.11790 0.05187
140.90000 1.35835 -0.15780 0.06671
141.00000 1.32710 -0.06084 -0.02105
141.10000 1.44293 -0.06144 -0.02848
141.20000 1.45849 -0.07656 -0.00901
141.30000 1.28487 -0.05741 0.04264
141.40000 1.42797 0.07733 0.06219
141.50000 1.47281 0.20402 -0.02144
141.60000 1.41085 0.24747 -0.05982
141.70000 1.39526 0.06615 -0.00846
141.80000 1.43736 0.07096 0.06931
141.90000 1.38693 0.09127 0.00467
142.00000 1.43847 -0.14154 -0.00648
142.10000 1.43934 -0.25714 0.01267
142.20000 1.41514 -0.10327 0.02055
142.30000 1.43965 -0.00014 0.04049
142.40000 1.42681 0.18427 -0.04816
142.50000 1.42249 0.05444 -0.04165
142.60000 1.44638 0.05280 0.02383
142.70000 1.36602 0.05200 -0.05555
142.80000 1.45714 0.18450 0.04894
142.90000 1.43114 0.08021 -0.02990
143.00000 1.43698 -0.02655 -0.03485
143.10000 1.41687 -0.02654 -0.02969
143.20000 1.38299 -0.14973 0.04129
143.30000 1.43998 -0.21030 0.02751
143.40000 1.44314 -0.18046 -0.10152
143.50000 1.41474 -0.08780 -0.01656
143.60000 1.43331 -0.10775 0.02084
143.70000 1.37731 -0.03899 -0.00080
143.80000 1.40917 -0.07283 -0.07769
143.90000 1.42756 -0.04358 0.02615
144.00000 1.38916 0.01649 -0.00445
144.10000 1.39710 0.03003 -0.07344
144.20000 1.37468 -0.08622 0.02924
144.30000 1.41788 0.06183 0.04108
144.40000 1.43206 -0.05791 -0.02879
144.50000 1.44113 -0.14394 -0.03569
144.60000 1.45034 -0.13149 -0.02777
144.70000 1.37451 -0.11264 0.00654
144.80000 1.47400 -0.16528 0.03400
144.90000 1.39578 -0.25246 -0.06837
145.00000 1.33955 -0.13037 0.05908
145.10000 1.45464 0.00920 0.03043
145.20000 1.40919 0.17030 -0.05914
145.30000 1.44490 0.10326 -0.03171
145.40000 1.39962 0.29069 0.01629
145.50000 1.36453 0.30151 -0.00275
145.60000 1.39408 0.10057 0.01644
145.70000 1.43192 -0.05954 -0.05146
145.80000 1.46838 -0.07870 -0.02204
145.90000 1.34554 0.01552 0.04747
146.00000 1.40938 0.15455 0.01100
146.10000 1.50107 0.12986 -0.03521
146.20000 1.45387 0.07362 -0.03798
146.30000 1.43111 -0.04398 0.02922
146.40000 1.37884 -0.01491 -0.00321
146.50000 1.41667 -0.16817 -0.04150
146.60000 1.40313 -0.08623 -0.00351
146.70000 1.39861 0.09336 0.06677
146.80000 1.39165 0.11566 0.00139
146.90000 1.46313 -0.11013 -0.04623
147.00000 1.44166 -0.10973 0.05043
147.10000 1.35624 -0.09052 -0.01122
147.20000 1.36831 0.07340 -0.06844
147.30000 1.38509 0.27494 0.11358
147.40000 1.43399 0.23306 0.00122
147.50000 1.44786 0.13077 0.00259
147.60000 1.40909 -0.09897 0.04251
147.70000 1.41195 -0.19590 -0.01257
147.80000 1.40204 -0.30678 -0.01270
147.90000 1.44188 -0.16156 0.02205
148.00000 1.40971 0.07833 -0.04848
148.10000 1.45087 -0.13305 -0.00066
148.20000 1.39814 -0.13557 0.01601
148.30000 1.43532 -0.14257 -0.02533
148.40000 1.41569 -0.07587 -0.00621
148.50000 1.39510 0.21401 0.01800
148.60000 1.43209 0.23110 0.02265
148.70000 1.42262 -0.01101 -0.06017
148.80000 1.41822 -0.07236 0.02902
148.90000 1.47352 -0.02672 -0.02195
149.00000 1.37754 0.05995 0.02393
149.10000 1.39668 0.00051 0.01161
149.20000 1.38823 -0.18018 0.04444
149.30000 1.43617 -0.09559 -0.03468
149.40000 1.43752 -0.08350 -0.02704
149.50000 1.44774 -0.16287 -0.01566
149.60000 1.41469 -0.18145 0.01305
149.70000 1.41159 -0.25154 -0.02891
149.80000 1.34331 -0.02396 -0.03681
149.90000 1.40384 0.18945 0.03038
150.00000 1.37581 0.14856 0.02015
150.10000 1.45070 0.01599 0.00597
150.20000 1.44981 -0.05779 0.01112
150.30000 1.40320 -0.02133 0.00203
150.40000 1.40679 0.08822 0.00975
150.50000 1.49180 0.13169 0.03790
150.60000 1.39328 0.09773 -0.07495
150.70000 1.35555 0.06468 0.00096
150.80000 1.47665 -0.17597 0.03073
150.90000 1.45118 -0.23933 0.00038
151.00000 1.41498 -0.18536 -0.01369
151.10000 1.45440 -0.07555 -0.05144
151.20000 1.42361 0.12021 -0.01438
151.30000 1.39684 0.05794 0.07429
151.40000 1.41151 -0.06992 0.06858
151.50000 1.41996 -0.09057 -0.07140
151.60000 1.40729 0.04912 0.00403
151.70000 1.41434 0.02093 0.05928
151.80000 1.43851 -0.01515 -0.04420
151.90000 1.39149 0.06904 0.02031
152.00000 1.36921 -0.01484 -0.00302
152.10000 1.46905 0.10819 -0.00570
152.20000 1.41830 0.09840 0.00635
152.30000 1.38531 -0.08463 0.05700
152.40000 1.43597 -0.17927 -0.07887
152.50000 1.43405 -0.10661 -0.00206
152.60000 1.42124 0.06900 0.04372
152.70000 1.42269 0.20685 0.07752
152.80000 1.41501 0.31894 -0.09156
152.90000 1.47137 0.06566 -0.01688
153.00000 1.40463 -0.17660 0.01031
153.10000 1.39099 -0.11794 0.01372
153.20000 1.41108 0.06699 0.04954
153.30000 1.40596 -0.12149 -0.02581
153.40000 1.39488 -0.29223 0.00440
153.50000 1.42687 -0.16711 -0.00960
153.60000 1.47316 -0.17789 -0.01538
153.70000 1.34678 -0.01180 -0.02605
153.80000 1.46976 0.28672 0.05858
153.90000 1.44895 0.37731 -0.01590
154.00000 1.41470 0.18999 0.00751
154.10000 1.40036 0.02460 0.04396
154.20000 1.46485 -0.12696 -0.07208
154.30000 1.39823 -0.19806 -0.00910
154.40000 1.41161 0.05950 -0.02466
154.50000 1.47470 0.37843 0.00133
154.60000 1.41170 0.35330 -0.01161
154.70000 1.39982 0.17406 0.00151
154.80000 1.44516 -0.09827 0.02188
154.90000 1.45178 -0.41164 -0.01587
155.00000 1.34078 -0.44243 0.00420
155.10000 1.47730 -0.31120 0.01268
155.20000 1.42829 -0.18670 -0.01993
155.30000 1.38399 -0.01599 -0.00032
155.40000 1.44375 0.06580 0.03990
155.50000 1.42293 0.09381 -0.00869
155.60000 1.45603 -0.13319 0.04630
155.70000 1.40459 -0.33446 -0.00440
155.80000 1.42133 -0.30580 0.02173
155.90000 1.40361 0.05757 0.00520
156.00000 1.43897 0.24809 -0.02941
156.10000 1.40794 0.25767 -0.00921
156.20000 1.41425 -0.15038 0.00088
156.30000 1.41796 -0.18772 -0.01387
156.40000 1.41919 -0.19150 0.02304
156.50000 1.43184 -0.20137 0.01821
156.60000 1.40380 0.00128 0.00190
156.70000 1.41636 0.09911 -0.03608
156.80000 1.35351 0.06561 -0.00804
156.90000 1.45648 -0.04453 0.03609
157.00000 1.46583 -0.04982 0.00703
157.10000 1.43222 -0.08874 -0.00495
157.20000 1.34262 0.06204 -0.07153
157.30000 1.45049 -0.02238 0.03215
157.40000 1.43137 -0.13075 0.05233
157.50000 1.37954 -0.00261 -0.01537
157.60000 1.41101 0.20591 -0.05694
157.70000 1.45789 0.19576 0.04469
157.80000 1.42128 0.05930 0.00950
157.90000 1.45339 0.18599 -0.04948
158.00000 1.36785 0.23242 0.06398
158.10000 1.40571 0.04612 -0.03630
158.20000 1.48937 -0.20626 0.02476
158.30000 1.45756 -0.26566 0.06611
158.40000 1.37226 -0.09432 -0.00946
158.50000 1.40090 0.17554 -0.02277
158.60000 1.44709 0.21616 0.00229
158.70000 1.47045 -0.11950 -0.01053
158.80000 1.31534 -0.42682 -0.00338
158.90000 1.42891 -0.54533 0.02640
159.00000 1.45644 -0.28020 0.03406
159.10000 1.41177 0.05176 0.01544
159.20000 1.42243 0.28805 -0.00497
159.30000 1.36326 0.11239 -0.03569
159.40000 1.43084 -0.03524 0.01169
159.50000 1.38468 -0.07978 0.01106
159.60000 1.44221 -0.02326 -0.02565
159.70000 1.41391 0.09529 0.00639
159.80000 1.39889 -0.16500 0.03922
159.90000 1.48327 -0.24271 0.01643
160.00000 1.37289 -0.20885 -0.03871
160.10000 1.42774 -0.05123 0.01115
160.20000 1.41183 -0.07346 0.00257
160.30000 1.38566 0.08634 -0.01742
160.40000 1.39622 0.10492 0.01837
160.50000 1.39083 0.00793 0.04802
160.60000 1.37534 0.00966 -0.01050
160.70000 1.42637 0.08147 -0.00036
160.80000 1.43252 0.09039 0.00748
160.90000 1.35068 0.03639 0.06792
161.00000 1.49306 0.11804 -0.11000
161.10000 1.40686 0.00871 0.05582
161.20000 1.32775 0.05127 -0.01806
161.30000 1.49377 -0.02930 -0.00265
161.40000 1.46734 -0.04176 -0.05913
161.50000 1.36327 0.11497 0.02891
161.60000 1.37062 0.19368 0.00327
161.70000 1.52227 0.16821 0.00803
161.80000 1.46739 0.04522 0.04857
161.90000 1.41485 0.12103 -0.01225
162.00000 1.42251 0.07282 -0.00026
162.10000 1.43387 -0.01899 0.01043
162.20000 1.34975 -0.05305 0.01407
162.30000 1.41640 -0.01779 -0.01977
162.40000 1.41200 0.04371 -0.01326
162.50000 1.46185 0.13165 -0.00843
162.60000 1.38814 -0.00927 0.05374
162.70000 1.43662 -0.13936 0.04508
162.80000 1.44040 -0.06544 -0.02544
162.90000 1.43340 0.17352 -0.04589
163.00000 1.43526 0.12474 0.05540
163.10000 1.38782 -0.06735 -0.01793
163.20000 1.41157 0.06699 -0.09649
163.30000 1.43985 0.35936 0.04497
163.40000 1.43578 0.31749 0.02164
163.50000 1.38453 0.11446 0.02219
163.60000 1.43562 0.02515 0.00590
163.70000 1.41741 0.00604 -0.03943
163.80000 1.43412 0.00436 -0.02223
163.90000 1.43087 -0.08083 0.02925
164.00000 1.40512 -0.05073 0.04656
164.10000 1.39348 -0.26212 -0.04453
164.20000 1.37940 -0.26673 -0.00700
164.30000 1.42955 -0.06815 0.01059
164.40000 1.38333 0.08676 -0.01938
164.50000 1.44704 0.02525 0.01508
164.60000 1.45286 -0.14589 0.02743
164.70000 1.35821 -0.13425 0.03492
164.80000 1.42819 -0.07962 -0.02755
164.90000 1.45566 -0.12969 -0.07755
165.00000 1.38657 -0.30715 0.06085
165.10000 1.41526 -0.27198 -0.05201
165.20000 1.47751 -0.35748 -0.02237
165.30000 1.40236 -0.41469 0.04774
165.40000 1.38642 -0.33195 -0.05525
165.50000 1.42299 -0.08604 -0.03176
165.60000 1.44406 0.14131 0.02441
165.70000 1.38087 0.24972 0.02470
165.80000 1.38532 0.16293 -0.06235
165.90000 1.47191 0.13907 -0.04624
166.00000 1.37162 -0.05561 0.04379
166.10000 1.43916 0.06065 -0.03180
166.20000 1.41692 -0.01299 -0.02871
166.30000 1.38492 -0.11547 0.02633
166.40000 1.48810 -0.24998 0.04020
166.50000 1.44606 -0.14012 -0.04231
166.60000 1.39779 -0.06414 0.00114
166.70000 1.42867 0.01801 0.02511
166.80000 1.44165 0.02722 -0.03286
166.90000 1.36570 0.10908 0.01968
167.00000 1.43545 0.19954 0.02691
167.10000 1.42629 0.18535 -0.00921
167.20000 1.39370 0.16905 -0.00271
167.30000 1.48020 0.09256 0.06829
167.40000 1.40672 0.16033 0.02852
167.50000 1.42551 -0.02679 -0.03354
167.60000 1.40710 -0.09148 -0.05404
167.70000 1.40800 -0.11926 0.02406
167.80000 1.44628 -0.20205 0.03345
167.90000 1.43906 -0.07582 0.03060
168.00000 1.38055 0.01630 0.01520
168.10000 1.39021 0.30126 -0.00428
168.20000 1.42701 0.23150 -0.05761
168.30000 1.43528 0.05099 0.03624
168.40000 1.44726 -0.15130 0.00308
168.50000 1.33400 -0.19112 0.00690
168.60000 1.42897 -0.22936 -0.02298
168.70000 1.44424 -0.20701 -0.03183
168.80000 1.42589 -0.20667 0.00897
168.90000 1.44174 0.07012 -0.03877
169.00000 1.43332 0.18248 0.00305
169.10000 1.40700 0.04500 0.03455
169.20000 1.40601 -0.05544 -0.08756
169.30000 1.37098 -0.15157 0.04717
169.40000 1.44807 -0.14752 0.04410
169.50000 1.33658 -0.03620 -0.04892
169.60000 1.45085 -0.01364 -0.02377
169.70000 1.38432 -0.11533 0.00719
169.80000 1.43202 -0.17182 0.01265
169.90000 1.40427 -0.08659 -0.05931
170.00000 1.41869 0.03985 -0.00786
170.10000 1.37659 0.02242 0.01475
170.20000 1.44372 -0.07941 0.00762
170.30000 1.35074 0.01712 0.00659
170.40000 1.44072 0.13746 -0.06528
170.50000 1.42782 0.20262 0.07974
170.60000 1.40288 0.13286 0.04954
170.70000 1.42249 0.05674 -0.03445
170.80000 1.38009 0.11368 -0.00671
170.90000 1.42389 0.12372 0.00344
171.00000 1.35487 0.18060 -0.00245
171.10000 1.41835 0.17452 0.01896
171.20000 1.44290 0.10335 0.04689
171.30000 1.36672 0.07284 0.00322
171.40000 1.39527 -0.00907 -0.04899
171.50000 1.39954 0.05521 0.00634
171.60000 1.43639 0.13277 0.08543
171.70000 1.42683 -0.09161 0.00566
171.80000 1.41102 -0.13958 -0.07064
171.90000 1.39041 -0.19285 0.00483
172.00000 1.37673 -0.14603 0.06225
172.10000 1.43339 -0.02096 0.01540
172.20000 1.42023 0.24436 0.02601
172.30000 1.39499 0.27682 -0.01745
172.40000 1.38199 0.27533 -0.04220
172.50000 1.48171 0.04317 0.04566
172.60000 1.42281 0.12658 -0.09902
172.70000 1.42421 0.29197 0.00719
172.80000 1.35944 0.12331 0.06389
172.90000 1.41468 0.16522 -0.00087
173.00000 1.48034 0.14839 0.03155
173.10000 1.34305 0.16746 -0.00822
173.20000 1.39492 -0.05174 -0.03918
173.30000 1.49236 -0.06709 0.00581
173.40000 1.45131 -0.11186 0.05612
173.50000 1.34865 -0.02393 -0.02997
173.60000 1.36907 0.04425 -0.00893
173.70000 1.42639 0.30623 0.07600
173.80000 1.40473 0.43861 -0.05041
173.90000 1.44313 0.52426 -0.02190
174.00000 1.39174 0.24540 0.05188
174.10000 1.41582 0.08498 0.01932
174.20000 1.40919 0.07646 -0.06383
174.30000 1.45444 -0.11115 0.00059
174.40000 1.43374 -0.03441 0.02265
174.50000 1.36668 -0.04312 0.00467
174.60000 1.40198 0.09240 0.02378
174.70000 1.42580 0.03746 -0.04373
174.80000 1.45802 0.01587 0.03505
174.90000 1.37254 -0.08934 -0.00251
175.00000 1.45148 0.00695 0.01890
175.10000 1.44192 0.16757 -0.03657
175.20000 1.37811 0.29646 0.00585
175.30000 1.41116 0.26103 0.03441
175.40000 1.44992 0.11912 0.00376
175.50000 1.41760 -0.02155 0.03427
175.60000 1.34286 -0.17153 0.02977
175.70000 1.41611 -0.17428 -0.01819
175.80000 1.46705 0.01302 0.02350
175.90000 1.37217 -0.06804 -0.00037
176.00000 1.40603 0.01818 -0.00723
176.10000 1.48897 -0.12058 0.01131
176.20000 1.40762 -0.11513 0.03769
176.30000 1.33982 -0.06554 -0.02152
176.40000 1.39811 -0.06093 -0.03202
176.50000 1.46032 -0.04528 0.03264
176.60000 1.40648 -0.01033 0.01163
176.70000 1.36584 -0.05103 -0.07345
176.80000 1.44534 -0.25177 0.00715
176.90000 1.44174 -0.21679 0.01405
177.00000 1.40439 -0.06547 -0.00949
177.10000 1.41758 0.02140 0.00573
177.20000 1.39864 -0.12792 -0.03320
177.30000 1.41149 0.01115 -0.01860
177.40000 1.38613 0.15497 -0.04401
177.50000 1.46932 0.12938 -0.00080
177.60000 1.39719 -0.02802 0.02838
177.70000 1.39867 -0.00151 0.04572
177.80000 1.43676 -0.01088 -0.00405
177.90000 1.43494 -0.10899 -0.06473
178.00000 1.39463 -0.16813 -0.00513
178.10000 1.43567 -0.08598 0.05268
178.20000 1.44384 -0.01255 0.00159
178.30000 1.38537 0.11470 -0.00934
178.40000 1.42204 0.09410 -0.04945
178.50000 1.36704 0.02483 0.08510
178.60000 1.43825 -0.06381 -0.02040
178.70000 1.42932 0.04082 -0.03318
178.80000 1.40287 -0.04029 0.01047
178.90000 1.40149 -0.14266 -0.00526
179.00000 1.43062 -0.05799 -0.02858
179.10000 1.40341 0.10459 -0.01623
179.20000 1.43320 0.13989 0.02719
179.30000 1.41061 0.03370 0.00563
179.40000 1.37501 -0.26948 -0.05976
179.50000 1.46928 -0.35670 -0.00540
179.60000 1.38495 -0.23825 0.06877
179.70000 1.30792 -0.28107 -0.06873
179.80000 1.37617 -0.33029 -0.00613
179.90000 1.44636 -0.17227 0.05491
180.00000 1.43391 -0.08340 -0.06615
180.10000 1.39580 0.08538 -0.02612
180.20000 1.42896 -0.00898 0.00833
180.30000 1.38284 -0.10563 0.00950
180.40000 1.40254 -0.02443 0.00176
180.50000 1.42541 0.16992 -0.02859
180.60000 1.47811 0.12477 0.02418
180.70000 1.38524 -0.09944 0.00449
180.80000 1.34497 -0.14094 0.03856
180.90000 1.40577 -0.13542 0.04907
181.00000 1.48394 -0.04221 0.05122
181.10000 1.42886 -0.16004 0.01152
181.20000 1.40898 -0.25275 -0.04086
181.30000 1.40578 -0.03905 0.03234
181.40000 1.46300 0.11396 0.05072
181.50000 1.44618 0.17140 -0.00436
181.60000 1.38541 0.19090 -0.05693
181.70000 1.46373 0.04421 -0.01883
181.80000 1.46743 -0.01755 0.02100
181.90000 1.32723 -0.04416 -0.00148
182.00000 1.38474 -0.03964 -0.01120
182.10000 1.46166 -0.04036 0.04854
182.20000 1.42614 -0.15558 -0.02279
182.30000 1.40467 -0.07933 0.00272
182.40000 1.43368 -0.20083 -0.03212
182.50000 1.43950 -0.11094 0.02853
182.60000 1.40249 0.17687 0.01282
182.70000 1.43865 0.21969 -0.03100
182.80000 1.38616 0.10384 -0.02830
182.90000 1.41885 0.05785 0.03701
183.00000 1.37918 0.15117 -0.02345
183.10000 1.33825 0.18332 0.00092
183.20000 1.41155 0.03139 0.00691
183.30000 1.41215 -0.07504 0.00377
183.40000 1.38369 0.06342 -0.01069
183.50000 1.41365 0.07480 0.03107
183.60000 1.41677 0.01605 0.00585
183.70000 1.38759 -0.18865 -0.02895
183.80000 1.40640 -0.20441 0.00932
183.90000 1.45180 -0.11220 -0.01408
184.00000 1.42722 -0.02715 -0.00018
184.10000 1.41239 -0.01493 0.00583
184.20000 1.33689 0.24930 -0.00572
184.30000 1.38794 0.40323 0.00011
184.40000 1.41068 0.18440 0.00644
184.50000 1.48669 -0.01933 -0.01884
184.60000 1.41483 0.04126 0.02054
184.70000 1.37912 0.05048 -0.05563
184.80000 1.40738 -0.02407 -0.01970
184.90000 1.46699 -0.13565 0.06210
185.00000 1.40949 -0.27163 0.01120
185.10000 1.39057 -0.02353 -0.01738
185.20000 1.46686 0.14123 0.06181
185.30000 1.35072 0.15020 0.00260
185.40000 1.37461 0.10494 -0.02888
185.50000 1.47871 0.20683 -0.00192
185.60000 1.47000 0.15834 -0.00142
185.70000 1.38641 0.09744 0.04021
185.80000 1.43911 0.34452 -0.01373
185.90000 1.41995 0.22882 0.00842
186.00000 1.39987 -0.01600 0.02501
186.10000 1.46187 -0.13609 0.04005
186.20000 1.38285 -0.18556 0.01583
186.30000 1.44594 -0.16634 -0.03170
186.40000 1.46259 -0.12449 -0.02332
186.50000 1.37382 0.06435 0.04389
186.60000 1.40908 0.12995 -0.01097
186.70000 1.43355 -0.03197 -0.02098
186.80000 1.42440 -0.10333 0.04701
186.90000 1.45695 -0.01814 -0.02234
187.00000 1.40121 0.23062 -0.06351
187.10000 1.40452 0.29830 0.08581
187.20000 1.32506 0.07386 -0.04961
187.30000 1.43506 -0.07961 -0.05876
187.40000 1.46767 -0.20434 0.02660
187.50000 1.42448 -0.06490 -0.00767
187.60000 1.29619 0.16628 -0.07328
187.70000 1.41891 0.08625 -0.06169
187.80000 1.44834 0.09553 0.03559
187.90000 1.39773 0.08183 -0.00178
188.00000 1.35526 0.10003 0.04371
188.10000 1.41575 0.10225 0.01322
188.20000 1.43635 0.03902 -0.03981
188.30000 1.39753 0.04990 0.01139
188.40000 1.41139 -0.13788 -0.02956
188.50000 1.47267 -0.24150 0.00318
188.60000 1.40448 -0.26329 0.06894
188.70000 1.42991 -0.21694 -0.01837
188.80000 1.36006 0.01873 -0.03614
188.90000 1.44737 0.28814 0.03022
189.00000 1.46628 0.30480 0.03219
189.10000 1.44847 0.24605 -0.02818
189.20000 1.44480 0.14972 -0.02289
189.30000 1.39729 0.09084 0.07530
189.40000 1.42247 0.05220 -0.04907
189.50000 1.35840 -0.12023 0.05214
189.60000 1.45554 -0.24242 0.08079
189.70000 1.45336 -0.18198 -0.09482
189.80000 1.35990 -0.05025 0.05799
189.90000 1.34290 0.06093 0.05162
190.00000 1.42860 0.07506 -0.02594
190.10000 1.44696 0.02614 -0.00982
190.20000 1.46840 -0.08943 -0.04771
190.30000 1.40280 -0.11785 0.04103
190.40000 1.42714 -0.08892 0.00368
190.50000 1.43363 0.10405 -0.02838
190.60000 1.40960 0.08970 0.00889
190.70000 1.43049 0.10429 0.06842
190.80000 1.39249 0.21102 -0.07940
190.90000 1.38266 0.23531 -0.01239
191.00000 1.47429 0.13275 -0.01015
191.10000 1.42121 0.26386 -0.02951
191.20000 1.41922 0.15214 0.05152
191.30000 1.38422 -0.04943 -0.00570
191.40000 1.45601 -0.17942 -0.09742
191.50000 1.42701 -0.10504 0.04875
191.60000 1.42478 -0.01852 0.00497
191.70000 1.33038 0.02286 0.03061
191.80000 1.39110 -0.10412 -0.03643
191.90000 1.47060 -0.10613 0.07341
192.00000 1.39048 -0.15016 0.01111
192.10000 1.38355 -0.06935 -0.07267
192.20000 1.41463 -0.06349 -0.00096
192.30000 1.40471 -0.03235 0.02908
192.40000 1.46022 0.00090 0.02571
192.50000 1.36954 -0.09233 0.00386
192.60000 1.35332 -0.23472 0.02565
192.70000 1.42003 -0.17133 0.00608
192.80000 1.42076 -0.08525 -0.05094
192.90000 1.41507 0.00086 0.02091
193.00000 1.41326 0.07890 -0.00927
193.10000 1.39248 0.16881 -0.00373
193.20000 1.40202 0.09395 -0.02718
193.30000 1.37470 0.01072 0.01853
193.40000 1.41261 -0.17150 -0.00142
193.50000 1.44248 -0.10233 -0.05351
193.60000 1.40461 0.03458 0.07240
193.70000 1.36391 0.05983 0.02175
193.80000 1.43480 0.09692 -0.04053
193.90000 1.45125 0.05063 -0.02071
194.00000 1.35082 -0.02950 -0.00465
194.10000 1.42667 -0.16626 -0.04642
194.20000 1.43192 -0.12101 0.01415
194.30000 1.38201 0.00454 0.09051
194.40000 1.45433 -0.08141 -0.05101
194.50000 1.44981 -0.10688 -0.01416
194.60000 1.43042 0.00366 -0.03967
194.70000 1.41191 0.18788 -0.03181
194.80000 1.39739 0.09491 0.01495
194.90000 1.39243 -0.17678 0.05779
195.00000 1.45869 -0.18362 -0.04066
195.10000 1.46434 -0.11550 -0.02628
195.20000 1.38974 -0.06143 0.03173
195.30000 1.37227 -0.05885 -0.01466
195.40000 1.48683 0.00962 0.00563
195.50000 1.35491 -0.01027 0.03210
195.60000 1.41738 -0.07505 -0.04016
195.70000 1.43780 0.03799 0.03338
195.80000 1.36632 0.20211 0.03253
195.90000 1.37584 0.22744 -0.01237
196.00000 1.41749 0.27701 -0.01379
196.10000 1.47086 0.09194 -0.00751
196.20000 1.40426 -0.02664 -0.00804
196.30000 1.37462 -0.03086 0.00082
196.40000 1.40891 0.01116 0.06963
196.50000 1.45000 0.10273 -0.00673
196.60000 1.47591 0.18498 -0.08413
196.70000 1.34432 0.24150 -0.04105
196.80000 1.40760 -0.00657 0.10002
196.90000 1.41175 -0.07062 -0.05871
197.00000 1.43036 0.16193 -0.03863
197.10000 1.46378 0.11077 0.03468
197.20000 1.39309 0.22044 -0.01173
197.30000 1.41995 0.21958 -0.07908
197.40000 1.41237 0.02406 0.00731
197.50000 1.45905 -0.03899 0.01586
197.60000 1.39499 -0.27943 0.05701
197.70000 1.39611 -0.19353 -0.03196
197.80000 1.49234 0.00545 0.00800
197.90000 1.40549 -0.00003 -0.03594
198.00000 1.38718 0.08709 0.03154
198.10000 1.39780 -0.05025 0.07485
198.20000 1.42529 -0.23208 -0.08604
198.30000 1.38155 -0.12318 -0.03023
198.40000 1.41469 0.09505 0.03483
198.50000 1.42396 0.09916 -0.03861
198.60000 1.42374 -0.06344 0.04145
198.70000 1.43142 -0.01713 -0.00178
198.80000 1.41878 -0.01605 -0.02612
198.90000 1.36759 -0.01385 0.05749
199.00000 1.43736 0.03014 -0.02917
199.10000 1.34153 0.17354 -0.05647
199.20000 1.45670 0.29615 0.01647
199.30000 1.47345 0.23378 0.06519
199.40000 1.37898 -0.00916 -0.03884
199.50000 1.44270 0.05972 -0.00553
199.60000 1.39327 0.07737 -0.11840
199.70000 1.34559 0.00902 0.05482
199.80000 1.43542 0.20041 0.00890
199.90000 1.40320 -0.00610 -0.03476
200.00000 1.43268 -0.10444 0.05224
200.10000 1.44052 0.09152 0.00637
200.20000 1.44810 0.18141 -0.06105
200.30000 1.42852 0.18130 0.03960
200.40000 1.44802 0.26838 -0.00200
200.50000 1.40389 0.07969 -0.02893
200.60000 1.35322 -0.20456 0.03460
200.70000 1.43416 -0.37687 -0.03881
200.80000 1.45655 -0.23932 -0.03665
200.90000 1.35140 -0.05048 0.06260
201.00000 1.34636 0.06460 0.01956
201.10000 1.39409 0.10675 -0.01449
201.20000 1.50970 0.12090 -0.03636
201.30000 1.41167 -0.09567 0.06356
201.40000 1.38555 -0.23079 0.01586
201.50000 1.45961 -0.15069 -0.01563
201.60000 1.38132 0.02080 0.01904
201.70000 1.43451 -0.05513 0.03185
201.80000 1.45641 -0.10899 -0.03621
201.90000 1.43754 -0.02568 0.01256
202.00000 1.42636 0.16921 -0.02795
202.10000 1.39330 0.22712 -0.03632
202.20000 1.42742 0.25623 0.04753
202.30000 1.38855 0.31926 0.03304
202.40000 1.44726 0.11206 -0.02587
202.50000 1.37932 0.03317 0.02592
202.60000 1.47277 -0.18549 -0.03435
202.70000 1.45081 -0.31579 -0.02115
202.80000 1.33689 -0.25509 -0.02603
202.90000 1.44409 0.01553 -0.00832
203.00000 1.40302 0.13820 0.05102
203.10000 1.42318 0.16849 -0.01549
203.20000 1.45187 -0.01666 0.01724
203.30000 1.39684 -0.18618 0.05721
203.40000 1.40270 -0.15928 -0.04192
203.50000 1.42723 -0.02514 -0.03370
203.60000 1.38429 0.07342 0.03525
203.70000 1.39895 0.14966 0.00415
203.80000 1.41811 0.01392 -0.00340
203.90000 1.42844 -0.20534 -0.05127
204.00000 1.39537 -0.02478 -0.00940
204.10000 1.41740 0.02425 0.02102
204.20000 1.42167 -0.08466 -0.06545
204.30000 1.45864 -0.07931 -0.06730
204.40000 1.47255 -0.12361 0.03852
204.50000 1.45656 -0.05370 0.02549
204.60000 1.34800 0.02763 -0.09436
204.70000 1.40873 0.01504 0.08596
204.80000 1.40213 0.01581 0.06340
204.90000 1.42133 0.08700 0.02138
205.00000 1.45379 0.01346 -0.03441
205.10000 1.40564 -0.13686 -0.01612
205.20000 1.40855 -0.14020 -0.02241
205.30000 1.42754 -0.02638 -0.01300
205.40000 1.42546 0.01921 -0.00369
205.50000 1.38528 -0.17574 0.04312
205.60000 1.43819 -0.29614 -0.04221
205.70000 1.38673 -0.12363 0.00300
205.80000 1.40249 0.03956 0.05381
205.90000 1.40055 0.14751 -0.02359
206.00000 1.43532 0.21149 0.02094
206.10000 1.37471 0.27289 -0.02341
206.20000 1.39281 0.16443 -0.00126
206.30000 1.48688 0.16437 0.02639
206.40000 1.38041 0.04982 -0.03148
206.50000 1.44370 -0.07128 -0.05512
206.60000 1.42948 -0.05675 -0.00560
206.70000 1.39637 -0.08143 0.02567
206.80000 1.37098 -0.12871 -0.04129
206.90000 1.41673 -0.14179 0.00335
207.00000 1.44059 0.07401 -0.00106
207.10000 1.44737 0.19457 -0.01018
207.20000 1.43542 0.22398 -0.01497
207.30000 1.37834 -0.01687 -0.01778
207.40000 1.37936 -0.09512 0.05867
207.50000 1.42651 -0.07284 -0.04653
207.60000 1.41762 -0.09318 -0.03603
207.70000 1.43176 -0.31174 0.07110
207.80000 1.38350 -0.08046 0.01515
207.90000 1.43631 -0.02729 -0.00914
208.00000 1.40687 0.00716 0.00897
208.10000 1.32819 0.06662 0.05278
208.20000 1.44397 0.19763 -0.06854
208.30000 1.47789 0.31943 -0.00013
208.40000 1.43564 0.30585 0.05042
208.50000 1.36167 0.20364 -0.04529
208.60000 1.40525 0.08435 0.03447
208.70000 1.38132 0.03331 0.05709
208.80000 1.43990 0.01872 0.03567
208.90000 1.39457 -0.10144 -0.06585
209.00000 1.43871 0.03674 0.01547
209.10000 1.44034 0.01294 -0.01888
209.20000 1.45206 -0.12296 -0.00833
209.30000 1.38286 0.05264 0.01047
209.40000 1.43443 0.03775 -0.00200
209.50000 1.44985 -0.04427 0.06504
209.60000 1.40299 -0.10492 -0.02174
209.70000 1.43248 -0.23426 0.00376
209.80000 1.39370 -0.13252 0.03066
209.90000 1.43085 0.09187 0.05454
210.00000 1.41599 0.16422 -0.03645
210.10000 1.41173 0.23314 -0.04387
210.20000 1.39288 0.01082 0.04980
210.30000 1.40375 -0.10057 -0.04769
210.40000 1.40219 -0.04528 0.01673
210.50000 1.44869 -0.10117 0.03759
210.60000 1.45106 -0.06949 0.02673
210.70000 1.40143 0.06011 -0.04492
210.80000 1.34804 0.19640 0.01027
210.90000 1.46648 0.05415 0.02170
211.00000 1.36936 -0.08985 -0.00635
211.10000 1.39591 -0.09402 -0.02587
211.20000 1.42045 0.04957 -0.02288
211.30000 1.38518 -0.05381 0.05149
211.40000 1.38988 -0.15476 0.04009
211.50000 1.39504 -0.10417 -0.05645
211.60000 1.42105 0.03596 0.01676
211.70000 1.44102 0.14721 0.00285
211.80000 1.46506 0.14892 -0.04264
211.90000 1.35467 0.10420 0.02877
212.00000 1.42583 0.07755 0.03877
212.10000 1.41672 0.04003 -0.05923
212.20000 1.37506 -0.11570 0.02833
212.30000 1.37657 -0.07841 0.04123
212.40000 1.44410 -0.05668 -0.05248
212.50000 1.43614 -0.14621 0.00547
212.60000 1.41399 -0.19651 0.07142
212.70000 1.41173 -0.16723 -0.01797
212.80000 1.41271 -0.14970 -0.05024
212.90000 1.42661 -0.24200 0.03544
213.00000 1.40413 -0.18844 0.08814
213.10000 1.45516 -0.14724 -0.00615
213.20000 1.39843 -0.10151 -0.02023
213.30000 1.42209 -0.08454 0.01401
213.40000 1.38631 -0.09398 0.05025
213.50000 1.41286 0.12039 -0.01950
213.60000 1.42706 0.06608 -0.03187
213.70000 1.38621 -0.10918 -0.00254
213.80000 1.47272 -0.12961 -0.01291
213.90000 1.40585 -0.04556 -0.02441
214.00000 1.32415 -0.11420 0.01989
214.10000 1.45159 -0.27521 -0.01810
214.20000 1.42885 -0.14638 -0.00508
214.30000 1.47351 0.11446 -0.01401
214.40000 1.38437 0.32845 -0.00740
214.50000 1.39615 0.47491 -0.01773
214.60000 1.44121 0.29135 0.04262
214.70000 1.38017 -0.00817 -0.03649
214.80000 1.43937 -0.11506 -0.02164
214.90000 1.44389 0.05727 0.03679
215.00000 1.41613 0.07423 0.03093
215.10000 1.37035 0.17548 -0.01866
215.20000 1.39498 -0.02619 -0.03422
215.30000 1.42780 -0.11484 -0.01589
215.40000 1.44710 0.06081 -0.06197
215.50000 1.41644 -0.04343 0.00625
215.60000 1.37471 -0.16620 0.02159
215.70000 1.39356 -0.24501 -0.02828
215.80000 1.44891 -0.20318 -0.03849
215.90000 1.40255 -0.04061 -0.01081
216.00000 1.43267 -0.00407 0.04462
216.10000 1.46297 -0.03580 0.03699
216.20000 1.36054 -0.05139 0.01215
216.30000 1.44317 0.00590 -0.05381
216.40000 1.43746 0.18397 -0.01127
216.50000 1.39303 0.23537 0.01040
216.60000 1.40076 0.29030 -0.02799
216.70000 1.40110 0.10204 -0.02485
216.80000 1.46189 -0.17956 0.08183
216.90000 1.36212 -0.15778 0.01822
217.00000 1.48164 -0.11965 -0.02519
217.10000 1.37484 0.00615 0.04336
217.20000 1.39831 -0.03800 0.00809
217.30000 1.37850 0.03545 0.04352
217.40000 1.48743 0.11905 0.03623
217.50000 1.42093 0.08459 0.06456
217.60000 1.40213 0.06294 -0.00870
217.70000 1.43135 -0.00595 -0.00116
217.80000 1.40587 -0.11349 0.02187
217.90000 1.35227 -0.09124 -0.02159
218.00000 1.42874 0.00161 0.02399
218.10000 1.44876 0.08452 -0.02019
218.20000 1.41202 0.12678 -0.04025
218.30000 1.41507 -0.05605 0.04922
218.40000 1.40715 -0.14707 -0.02753
218.50000 1.41852 -0.07448 -0.01896
218.60000 1.32427 0.01760 -0.01808
218.70000 1.44812 -0.08182 0.00621
218.80000 1.43276 -0.07074 -0.01416
218.90000 1.39860 -0.00995 0.02458
219.00000 1.47870 -0.13689 -0.02522
219.10000 1.33789 -0.13897 -0.00104
219.20000 1.45435 0.05115 -0.00053
219.30000 1.44930 0.11611 0.03754
219.40000 1.46748 0.05161 -0.05597
219.50000 1.35012 -0.07863 0.04965
219.60000 1.38424 -0.34759 -0.07285
219.70000 1.40898 -0.28908 0.01802
219.80000 1.41637 -0.07474 0.00005
219.90000 1.45099 0.04066 -0.04859
220.00000 1.42915 0.00973 0.00542
220.10000 1.37070 -0.04700 0.01408
220.20000 1.41748 -0.03305 0.03493
220.30000 1.45707 -0.14785 0.03731
220.40000 1.42860 -0.15796 0.01465
220.50000 1.43779 -0.05277 -0.01620
220.60000 1.38721 -0.19918 -0.02218
220.70000 1.41192 -0.21411 0.00882
220.80000 1.36103 -0.06722 0.00463
220.90000 1.46808 0.08617 -0.01669
221.00000 1.37896 0.07993 -0.03601
221.10000 1.43401 -0.05604 0.00522
221.20000 1.42989 -0.10412 -0.10829
221.30000 1.40769 -0.03953 0.03332
221.40000 1.38518 -0.11413 0.03630
221.50000 1.42367 -0.03810 -0.02261
221.60000 1.42123 0.07178 -0.00977
221.70000 1.37003 0.08326 0.06662
221.80000 1.49748 -0.06618 -0.03836
221.90000 1.44470 0.07512 -0.01043
222.00000 1.33920 0.16723 0.04930
222.10000 1.44208 0.16621 -0.02685
222.20000 1.42021 -0.04167 -0.07028
222.30000 1.40803 -0.26801 0.04463
222.40000 1.43766 -0.37681 -0.01280
222.50000 1.38674 -0.25987 -0.02150
222.60000 1.37051 -0.13072 0.04253
222.70000 1.30995 0.03013 0.01008
222.80000 1.48699 0.00091 -0.02167
222.90000 1.49642 -0.08143 -0.03802
223.00000 1.30387 -0.09479 0.06677
223.10000 1.37892 -0.05871 0.03229
223.20000 1.45298 -0.00716 -0.01173
223.30000 1.40865 0.19175 0.01441
223.40000 1.38773 0.23382 0.03785
223.50000 1.38924 0.08415 -0.00159
223.60000 1.40517 -0.21589 0.05134
223.70000 1.46902 -0.28821 -0.07351
223.80000 1.42989 -0.25847 0.00215
223.90000 1.42410 -0.13616 0.03747
224.00000 1.43148 -0.08570 0.01611
224.10000 1.37538 -0.03002 -0.01826
224.20000 1.42550 0.02520 -0.02692
224.30000 1.45872 0.03098 0.01207
224.40000 1.40421 -0.01442 -0.01628
224.50000 1.39295 -0.11535 0.00945
224.60000 1.41723 -0.24361 0.00862
224.70000 1.39680 -0.25643 -0.06766
224.80000 1.41736 -0.26564 0.03433
224.90000 1.43318 -0.25358 0.05086
225.00000 1.39006 -0.09527 -0.02385
225.10000 1.42820 0.18031 -0.01560
225.20000 1.45689 0.04212 -0.02478
225.30000 1.39630 -0.21907 -0.02005
225.40000 1.48025 -0.25381 0.02214
225.50000 1.43362 -0.01227 0.03021
225.60000 1.42123 0.17205 -0.02786
225.70000 1.43792 0.13307 -0.00035
225.80000 1.38842 0.02222 0.01298
225.90000 1.38682 -0.20392 0.00050
226.00000 1.45108 -0.18764 -0.00193
226.10000 1.41407 -0.04796 -0.00368
226.20000 1.40150 0.11924 -0.01331
226.30000 1.43317 0.04282 0.03637
226.40000 1.45884 -0.12143 -0.07467
226.50000 1.38375 -0.08806 -0.02392
226.60000 1.35303 0.02769 0.00095
226.70000 1.44134 0.09818 0.01013
226.80000 1.45326 0.30139 0.01814
226.90000 1.39693 0.26688 -0.04765
227.00000 1.38697 -0.02354 0.05139
227.10000 1.44369 -0.16243 0.03528
227.20000 1.40144 -0.20366 -0.02317
227.30000 1.40173 -0.01459 -0.04622
227.40000 1.44029 -0.14815 0.08355
227.50000 1.44327 -0.15431 -0.01028
227.60000 1.36157 -0.01402 -0.06003
227.70000 1.39965 -0.04611 0.04533
227.80000 1.40728 0.02819 -0.03481
227.90000 1.42273 0.14732 0.03118
228.00000 1.43185 0.12396 -0.04215
228.10000 1.34056 0.16220 -0.05019
228.20000 1.39556 0.06286 0.08226
228.30000 1.45884 0.02285 0.01245
228.40000 1.40573 -0.06439 0.05289
228.50000 1.40190 -0.32165 0.04821
228.60000 1.44065 -0.36468 -0.09097
228.70000 1.43146 -0.26028 0.00870
228.80000 1.42571 0.08913 0.02498
228.90000 1.34777 0.28023 0.01602
229.00000 1.45976 0.08359 0.04403
229.10000 1.41552 -0.17373 0.03983
229.20000 1.42913 -0.12987 -0.02685
229.30000 1.41018 0.16419 -0.04646
229.40000 1.43274 0.19852 0.01901
229.50000 1.42333 0.06637 0.00998
229.60000 1.42032 -0.03622 -0.02551
229.70000 1.44718 -0.05767 0.00122
229.80000 1.44378 -0.17213 0.01632
229.90000 1.29951 -0.12202 -0.06543
230.00000 1.42035 0.04859 -0.02810
230.10000 1.47010 -0.09317 0.01734
230.20000 1.36909 -0.10509 0.01618
230.30000 1.44155 -0.12338 0.00419
230.40000 1.37053 0.04217 0.03566
230.50000 1.39832 0.22615 -0.00397
230.60000 1.40840 0.11938 0.02751
230.70000 1.35838 0.03304 0.01805
230.80000 1.44373 -0.05430 -0.04550
230.90000 1.48561 0.01398 -0.04171
231.00000 1.36595 0.12175 0.05606
231.10000 1.44376 -0.06198 0.03315
231.20000 1.38566 -0.17707 -0.02736
231.30000 1.37850 -0.00228 -0.03681
231.40000 1.45581 0.25018 0.04121
231.50000 1.46021 0.11429 0.01036
231.60000 1.32564 -0.04217 0.05432
231.70000 1.39766 -0.12845 -0.00314
231.80000 1.45687 -0.08472 -0.03695
231.90000 1.40500 -0.16284 0.05231
232.00000 1.45874 -0.18350 -0.04249
232.10000 1.41888 0.01300 0.02504
232.20000 1.34496 0.05139 -0.02896
232.30000 1.43426 -0.13582 0.07295
232.40000 1.43152 -0.28968 0.01156
232.50000 1.38440 -0.23239 -0.07829
232.60000 1.41237 -0.21892 -0.02789
232.70000 1.47897 -0.21233 0.04973
232.80000 1.43855 -0.09296 -0.04189
232.90000 1.36415 0.24361 -0.06343
233.00000 1.38354 0.26287 0.02218
233.10000 1.36094 0.12717 0.01928
233.20000 1.42407 -0.01875 -0.00588
233.30000 1.45530 -0.28834 -0.07134
233.40000 1.40897 -0.41074 -0.01658
233.50000 1.40604 -0.23327 0.00836
233.60000 1.45968 -0.12087 0.01004
233.70000 1.43219 -0.07046 -0.01714
233.80000 1.41710 -0.07604 0.06188
233.90000 1.43819 0.21462 -0.01507
234.00000 1.42861 0.19482 -0.04729
234.10000 1.44760 -0.03602 -0.00526
234.20000 1.42620 -0.15600 -0.01104
234.30000 1.46713 0.11926 0.00921
234.40000 1.30351 0.04935 0.01146
234.50000 1.40672 0.20051 -0.06767
234.60000 1.42514 0.13751 -0.00129
234.70000 1.37118 0.16406 0.01900
234.80000 1.47006 -0.06789 0.08643
234.90000 1.40911 -0.13875 -0.01137
235.00000 1.40769 -0.14202 -0.10453
235.10000 1.43930 0.02576 0.04919
235.20000 1.44552 0.29581 0.03653
235.30000 1.36472 0.15020 -0.04420
235.40000 1.46396 -0.14446 -0.00039
235.50000 1.40635 -0.18707 0.01923
235.60000 1.37301 -0.01774 -0.00266
235.70000 1.46304 0.01211 -0.02236
235.80000 1.43728 0.10457 -0.03569
235.90000 1.37535 0.10621 -0.01068
236.00000 1.39966 0.06276 -0.03464
236.10000 1.44220 0.05370 0.00352
236.20000 1.40225 0.10288 0.04886
236.30000 1.43391 0.14762 -0.01306
236.40000 1.44961 0.11544 -0.04014
236.50000 1.36866 0.11320 0.04958
236.60000 1.45831 -0.04868 0.03165
236.70000 1.41772 0.04824 -0.01473
236.80000 1.45925 -0.01244 0.01788
236.90000 1.38775 -0.04145 0.03789
237.00000 1.40712 -0.05127 -0.02886
237.10000 1.46448 0.14196 0.01037
237.20000 1.41010 0.21524 -0.01778
237.30000 1.40750 0.16624 0.01947
237.40000 1.40215 0.17327 -0.01466
237.50000 1.43566 0.13507 0.04243
237.60000 1.43704 -0.06177 -0.05433
237.70000 1.36853 -0.14394 0.01472
237.80000 1.40781 -0.03044 0.03003
237.90000 1.45877 -0.07303 -0.02076
238.00000 1.46865 -0.04579 -0.02569
238.10000 1.42176 -0.07875 0.02055
238.20000 1.45555 -0.09294 0.07234
238.30000 1.40701 -0.09935 -0.02209
238.40000 1.40964 -0.11143 -0.02949
238.50000 1.44787 0.06711 0.01504
238.60000 1.42530 0.02088 0.09993
238.70000 1.42804 -0.01574 -0.03228
238.80000 1.45028 0.16163 -0.00667
238.90000 1.39709 -0.10768 -0.01452
239.00000 1.39916 -0.29283 -0.02230
239.10000 1.49020 -0.17551 0.07392
239.20000 1.40788 -0.13918 0.00749
239.30000 1.32198 -0.06127 -0.06198
239.40000 1.47671 -0.14800 -0.01098
239.50000 1.42828 -0.15743 0.02449
239.60000 1.40697 -0.04505 -0.01295
239.70000 1.44097 -0.09519 -0.05427
239.80000 1.34300 -0.17722 0.00075
239.90000 1.39617 -0.24672 0.02285
240.00000 1.47361 -0.19059 -0.06003
240.10000 1.38041 0.06137 0.05503
240.20000 1.40278 0.10217 0.02154
240.30000 1.47196 0.09597 -0.02182
240.40000 1.41249 0.02294 0.00148
240.50000 1.37094 0.06181 -0.03383
240.60000 1.44637 0.03815 0.01766
240.70000 1.41856 -0.09251 -0.00557
240.80000 1.42213 0.06431 0.03118
240.90000 1.40746 0.00968 -0.03865
241.00000 1.42902 -0.06115 -0.06043
241.10000 1.41966 -0.11468 0.04614
241.20000 1.39127 -0.26711 0.07971
241.30000 1.43675 -0.36772 -0.08149
241.40000 1.47017 -0.17183 0.00941
241.50000 1.43796 0.15518 0.03468
241.60000 1.37101 -0.00344 -0.00397
241.70000 1.42594 -0.26072 0.01127
241.80000 1.42305 -0.36962 0.04489
241.90000 1.37939 -0.30639 -0.02045
242.00000 1.42065 -0.06945 -0.00132
242.10000 1.42617 0.15117 -0.01821
242.20000 1.39653 0.19244 -0.01119
242.30000 1.41665 -0.06525 0.05361
242.40000 1.41693 -0.08969 -0.05222
242.50000 1.43100 -0.02695 -0.02700
242.60000 1.47492 0.05734 0.02170
242.70000 1.42165 0.19768 0.01326
242.80000 1.37232 0.16792 0.05832
242.90000 1.49038 0.14003 0.02649
243.00000 1.38910 0.04071 -0.04138
243.10000 1.38596 0.04326 -0.03231
243.20000 1.44251 0.17227 0.07151
243.30000 1.37804 0.20135 0.01395
243.40000 1.39918 0.10054 0.00908
243.50000 1.46313 -0.07215 -0.03230
243.60000 1.36354 -0.25633 0.00081
243.70000 1.40564 -0.19807 0.00689
243.80000 1.43891 -0.08970 0.03351
243.90000 1.49568 -0.03277 0.02099
244.00000 1.34627 -0.03970 0.01955
244.10000 1.39989 -0.03004 -0.02215
244.20000 1.43130 -0.13695 -0.00353
244.30000 1.47353 -0.15021 0.00079
244.40000 1.41982 -0.07006 0.02258
244.50000 1.43275 -0.10096 -0.01165
244.60000 1.41927 -0.18006 -0.00710
244.70000 1.33718 -0.13894 -0.01867
244.80000 1.40816 -0.14569 0.01637
244.90000 1.45904 -0.26846 0.00024
245.00000 1.44311 -0.15870 -0.00759
245.10000 1.43470 -0.09167 0.05291
245.20000 1.43114 -0.24606 -0.00133
245.30000 1.38644 -0.19512 -0.02600
245.40000 1.41317 -0.14771 0.04584
245.50000 1.39921 0.02167 -0.00400
245.60000 1.39652 -0.12714 -0.05902
245.70000 1.43867 -0.16423 0.03048
245.80000 1.39473 -0.00946 0.08017
245.90000 1.41579 0.13209 -0.04267
246.00000 1.42550 0.09231 -0.01076
246.10000 1.41233 -0.10611 0.03731
246.20000 1.42453 -0.01533 -0.02198
246.30000 1.41446 -0.01480 -0.06849
246.40000 1.40198 -0.08709 0.00850
246.50000 1.47558 -0.08690 -0.01765
246.60000 1.43424 -0.20232 -0.02107
246.70000 1.37704 -0.18976 -0.00618
246.80000 1.41158 -0.15685 0.01979
246.90000 1.43565 -0.10362 0.01565
247.00000 1.44551 -0.06147 0.00705
247.10000 1.39496 0.04197 0.02481
247.20000 1.37320 0.21124 -0.06276
247.30000 1.42687 0.16726 0.01650
247.40000 1.42746 -0.16049 0.00775
247.50000 1.38032 -0.22771 -0.00608
247.60000 1.44802 -0.19483 -0.01330
247.70000 1.35905 -0.12552 0.02207
247.80000 1.38636 0.04005 0.01142
247.90000 1.46112 0.12262 0.01286
248.00000 1.43140 0.10068 -0.02990
248.10000 1.45239 -0.02047 -0.01002
248.20000 1.40308 -0.07304 0.03358
248.30000 1.40954 0.01626 0.01136
248.40000 1.44083 0.05804 -0.03229
248.50000 1.38161 0.15674 0.02901
248.60000 1.41133 0.08463 -0.04307
248.70000 1.45312 0.10080 0.01076
248.80000 1.42694 0.02416 0.00932
248.90000 1.42884 -0.00761 0.00492
249.00000 1.38421 0.12013 0.01910
249.10000 1.42788 0.06626 0.02695
249.20000 1.41988 0.00719 -0.01702
249.30000 1.37871 0.10376 0.04962
249.40000 1.43900 0.13588 0.00489
249.50000 1.43366 0.09510 -0.04112
249.60000 1.41146 0.05770 0.00088
249.70000 1.44551 0.17783 0.03295
249.80000 1.35587 0.14662 0.00357
249.90000 1.36355 -0.04900 -0.02291
250.00000 1.44957 -0.22051 0.01295
250.10000 1.38351 -0.13303 0.01505
250.20000 1.42303 -0.03631 -0.05350
250.30000 1.39324 0.06034 -0.00663
250.40000 1.42921 0.04375 0.00763
250.50000 1.44879 0.03492 0.02810
250.60000 1.30044 -0.06075 0.00003
250.70000 1.40564 -0.09883 0.03727
250.80000 1.45210 -0.12067 0.00987
250.90000 1.38435 -0.17236 0.00415
251.00000 1.36912 -0.23958 -0.06007
251.10000 1.43675 -0.12861 0.04796
251.20000 1.44993 0.04930 0.02895
251.30000 1.37015 0.07071 -0.04331
251.40000 1.38405 -0.09841 -0.02608
251.50000 1.51467 -0.09328 -0.00031
251.60000 1.41678 0.04751 0.03606
251.70000 1.36831 0.20165 -0.01981
251.80000 1.40813 0.17841 0.00390
251.90000 1.45049 0.05390 -0.02110
252.00000 1.40507 0.05873 -0.00559
252.10000 1.40346 0.23653 0.04789
252.20000 1.38309 0.18795 -0.02777
252.30000 1.44108 0.13112 0.02960
252.40000 1.48642 0.09323 -0.02152
252.50000 1.34364 -0.01817 0.03027
252.60000 1.36275 -0.09501 -0.02879
252.70000 1.43186 -0.02848 0.01825
252.80000 1.45614 0.07856 -0.02085
252.90000 1.39677 0.04897 -0.00224
253.00000 1.41816 -0.01942 0.00858
253.10000 1.45410 -0.32581 -0.03208
253.20000 1.37828 -0.21015 0.03156
253.30000 1.42865 -0.00560 0.02432
253.40000 1.35491 0.03400 -0.06212
253.50000 1.46029 0.15500 0.00421
253.60000 1.41252 0.29152 0.05050
253.70000 1.41316 0.22812 -0.00956
253.80000 1.42381 0.07288 -0.06371
253.90000 1.43309 -0.07397 0.02394
254.00000 1.44028 -0.19523 -0.02806
254.10000 1.38380 -0.33736 -0.01648
254.20000 1.40136 -0.24830 -0.00992
254.30000 1.43897 -0.09675 -0.03065
254.40000 1.46112 0.13298 0.00822
254.50000 1.43256 0.22108 -0.00094
254.60000 1.35949 0.23137 0.00142
254.70000 1.45488 0.00826 -0.02611
254.80000 1.43203 -0.24318 -0.01130
254.90000 1.39891 -0.18127 0.02094
255.00000 1.40006 -0.16349 0.02004
255.10000 1.39645 -0.24498 -0.05671
255.20000 1.43129 -0.15452 -0.02302
255.30000 1.46265 0.03542 -0.01361
255.40000 1.34480 0.28038 -0.00192
255.50000 1.36367 0.34055 0.01283
255.60000 1.45601 0.20884 -0.01693
255.70000 1.43762 -0.06332 -0.03132
255.80000 1.38511 -0.11071 0.04276
255.90000 1.42718 0.09732 0.00894
256.00000 1.41398 0.09833 0.00840
256.10000 1.36831 -0.08065 0.00343
256.20000 1.45033 0.08049 -0.02501
256.30000 1.47034 0.41786 -0.02912
256.40000 1.35441 0.36309 0.04551
256.50000 1.47453 0.03593 -0.01097
256.60000 1.45703 -0.16372 0.00552
256.70000 1.39904 -0.22887 0.01080
256.80000 1.41405 -0.14103 0.02080
256.90000 1.49251 -0.08158 0.03999
257.00000 1.35561 0.04077 -0.07144
257.10000 1.41363 0.14639 0.03736
257.20000 1.46132 0.00269 0.05286
257.30000 1.42317 -0.06623 -0.04888
257.40000 1.42634 -0.00943 -0.04188
257.50000 1.37399 -0.14695 0.01791
257.60000 1.35175 -0.15509 0.00319
257.70000 1.46685 -0.22120 -0.00990
257.80000 1.33824 -0.10020 -0.00916
257.90000 1.34457 -0.04611 -0.03526
258.00000 1.49023 0.03970 -0.01214
258.10000 1.41057 -0.03390 0.03493
258.20000 1.37040 -0.00374 -0.00756
258.30000 1.43640 0.18568 -0.03692
258.40000 1.37925 0.30351 0.01653
258.50000 1.43681 0.13242 0.00445
258.60000 1.44505 -0.04822 -0.00694
258.70000 1.38312 0.00919 0.03497
258.80000 1.40132 0.16533 -0.00918
258.90000 1.43437 0.14865 0.01096
259.00000 1.40395 0.07914 0.01105
259.10000 1.37334 -0.00580 -0.01170
259.20000 1.45212 -0.14381 -0.04765
259.30000 1.44598 -0.30584 0.07901
259.40000 1.35318 -0.06166 0.00632
259.50000 1.41025 -0.04505 -0.03884
259.60000 1.45986 0.21947 -0.01386
259.70000 1.38770 0.38060 0.02327
259.80000 1.44314 0.37016 -0.03980
259.90000 1.42497 0.10821 0.00661
260.00000 1.42502 -0.03889 -0.02922
260.10000 1.41816 -0.14787 -0.04159
260.20000 1.45405 -0.07430 -0.00307
260.30000 1.46595 -0.01651 0.04247
260.40000 1.43924 0.06833 -0.04753
260.50000 1.39830 0.21628 0.00714
260.60000 1.39414 0.01570 0.04110
260.70000 1.42060 -0.09364 -0.00301
260.80000 1.42412 -0.07522 -0.02279
260.90000 1.40014 -0.07710 -0.04375
261.00000 1.41544 -0.14973 0.01059
261.10000 1.44874 -0.18031 0.03628
261.20000 1.40413 -0.11998 -0.01794
261.30000 1.44325 -0.14122 -0.00071
261.40000 1.41504 -0.10477 -0.01074
261.50000 1.47395 -0.00569 -0.04411
261.60000 1.40994 0.08027 -0.00729
261.70000 1.41607 0.08972 -0.06915
261.80000 1.40769 0.20409 0.00434
261.90000 1.40012 0.26343 0.00586
262.00000 1.41818 0.25450 0.01101
262.10000 1.39033 0.05741 0.02026
262.20000 1.44921 -0.05657 -0.01448
262.30000 1.36007 -0.22929 0.02476
262.40000 1.40603 -0.17702 -0.03590
262.50000 1.45955 -0.19898 0.02001
262.60000 1.43317 -0.18092 0.01311
262.70000 1.40287 0.08030 0.01643
262.80000 1.41816 0.08106 0.01701
262.90000 1.38289 -0.07410 0.03602
263.00000 1.40276 0.01870 -0.05323
263.10000 1.45750 0.12386 -0.00213
263.20000 1.43599 0.12126 0.04652
263.30000 1.38984 -0.00933 -0.01867
263.40000 1.41780 0.01442 0.00589
263.50000 1.41809 -0.04389 -0.03194
263.60000 1.36811 -0.05195 0.04281
263.70000 1.44162 -0.05609 0.06227
263.80000 1.42608 -0.00003 0.05298
263.90000 1.38453 0.07029 -0.06347
264.00000 1.48699 0.11868 0.04041
264.10000 1.35178 0.13447 0.03681
264.20000 1.43752 -0.03005 -0.07589
264.30000 1.41231 -0.08996 -0.09906
264.40000 1.43535 0.16138 0.04466
264.50000 1.39312 0.13269 0.02557
264.60000 1.39137 -0.17873 -0.06350
264.70000 1.45331 -0.15975 -0.02346
264.80000 1.37553 0.07164 0.04745
264.90000 1.37373 0.22931 -0.06083
265.00000 1.44952 0.12738 -0.00014
265.10000 1.45474 0.05397 0.04474
265.20000 1.46636 0.01327 0.00489
265.30000 1.37244 0.06286 -0.02041
265.40000 1.34305 0.11906 -0.01846
265.50000 1.51823 0.00291 0.03947
265.60000 1.38510 0.01758 0.01179
265.70000 1.32713 0.10010 -0.03544
265.80000 1.40866 -0.05703 -0.00824
265.90000 1.44959 -0.25999 0.07904
266.00000 1.45155 -0.21024 -0.03937
266.10000 1.37314 -0.25686 0.01390
266.20000 1.44522 0.11262 0.00195
266.30000 1.40579 0.25810 0.01096
266.40000 1.41820 0.09329 -0.01670
266.50000 1.42019 -0.04632 0.00242
266.60000 1.37199 -0.06693 -0.05232
266.70000 1.43200 -0.06675 -0.00892
266.80000 1.42601 0.03390 0.01539
266.90000 1.37331 0.10505 -0.00339
267.00000 1.46140 0.05396 -0.03284
267.10000 1.43983 -0.06298 -0.00951
267.20000 1.37190 -0.26328 -0.01764
267.30000 1.48757 -0.20957 -0.02468
267.40000 1.36708 -0.01535 0.02528
267.50000 1.42605 0.14583 -0.01123
267.60000 1.43322 0.13384 0.00395
267.70000 1.35363 0.13321 0.03374
267.80000 1.41128 0.07268 0.03728
267.90000 1.45590 0.10867 -0.05605
268.00000 1.37254 0.11937 0.03780
268.10000 1.44432 0.20851 -0.02872
268.20000 1.41709 -0.03852 -0.02300
268.30000 1.39816 -0.09474 0.01393
268.40000 1.40391 -0.10495 0.04042
268.50000 1.42632 -0.04189 -0.00900
268.60000 1.45787 -0.07806 -0.01573
268.70000 1.38199 0.08015 0.05578
268.80000 1.39223 0.23548 -0.05977
268.90000 1.44762 0.15094 0.00332
269.00000 1.43418 0.09616 0.04513
269.10000 1.36773 0.03041 -0.03938
269.20000 1.40930 0.14571 -0.04741
269.30000 1.42463 0.28008 0.06078
269.40000 1.39148 0.37218 -0.00680
269.50000 1.47201 0.11437 -0.04938
269.60000 1.33864 0.02003 -0.00943
269.70000 1.33953 -0.18330 -0.00573
269.80000 1.44863 -0.01712 0.04139
269.90000 1.43145 0.12275 -0.00927
270.00000 1.41710 0.15612 0.00441
270.10000 1.36953 0.08390 0.02345
270.20000 1.41979 0.09344 0.01117
270.30000 1.46975 -0.08729 0.00698
270.40000 1.38509 -0.30710 -0.04586
270.50000 1.42163 -0.10336 0.02950
270.60000 1.44854 0.01576 0.00518
270.70000 1.44617 0.03346 -0.03087
270.80000 1.43336 -0.00354 -0.00237
270.90000 1.34658 0.17279 -0.01570
271.00000 1.41086 -0.04439 0.03150
271.10000 1.42641 -0.14466 0.04587
271.20000 1.44252 -0.16232 -0.04068
271.30000 1.35942 -0.03101 0.03824
271.40000 1.46402 0.00494 -0.04275
271.50000 1.43171 0.01821 -0.00154
271.60000 1.41956 0.00019 0.00033
271.70000 1.36661 0.01916 -0.04600
271.80000 1.42110 0.04778 -0.00111
271.90000 1.44542 0.04674 0.05383
272.00000 1.44499 0.14972 -0.02835
272.10000 1.34654 0.07953 -0.03065
272.20000 1.37717 0.19638 0.02142
272.30000 1.44615 0.10323 0.02945
272.40000 1.46278 0.05305 -0.00478
272.50000 1.37422 -0.03850 -0.03364
272.60000 1.38410 -0.19476 0.01474
272.70000 1.45180 -0.11024 0.01592
272.80000 1.44598 -0.02280 0.02282
272.90000 1.38001 -0.02187 -0.00447
273.00000 1.43291 0.02318 0.02069
273.10000 1.42225 -0.05600 0.03988
273.20000 1.43632 -0.03036 0.04415
273.30000 1.46916 -0.08159 0.00534
273.40000 1.43165 -0.14618 -0.03068
273.50000 1.37611 -0.19597 -0.02897
273.60000 1.39866 -0.02966 0.02891
273.70000 1.47604 0.08617 -0.00228
273.80000 1.40006 0.17834 -0.03060
273.90000 1.38054 0.09337 -0.03272
274.00000 1.44635 -0.14653 0.01769
274.10000 1.32068 -0.23385 0.02803
274.20000 1.37470 0.11839 0.01141
274.30000 1.45556 0.34059 0.01816
274.40000 1.40388 0.16093 -0.00646
274.50000 1.40394 -0.09306 -0.01697
274.60000 1.41743 -0.07611 0.00426
274.70000 1.42908 0.14934 -0.01963
274.80000 1.33204 0.16794 -0.02505
274.90000 1.44301 0.13422 0.04333
275.00000 1.41145 -0.01210 0.00102
275.10000 1.42464 -0.18603 -0.05409
275.20000 1.44770 -0.09796 0.01743
275.30000 1.39819 0.02351 0.01803
275.40000 1.43209 0.21581 0.02697
275.50000 1.41476 0.31025 0.06496
275.60000 1.45260 -0.02801 -0.06299
275.70000 1.37070 -0.03548 0.02020
275.80000 1.44151 0.21176 0.07977
275.90000 1.40042 0.09066 -0.07749
276.00000 1.44921 -0.08971 -0.04488
276.10000 1.43390 -0.13697 -0.01526
276.20000 1.36463 -0.25682 0.07616
276.30000 1.47196 -0.20923 0.01534
276.40000 1.45358 -0.04000 -0.09004
276.50000 1.43589 -0.03527 0.02609
276.60000 1.41367 -0.02872 0.05805
276.70000 1.43484 -0.02992 -0.08430
276.80000 1.38604 0.04182 0.02209
276.90000 1.44104 0.14805 -0.00761
277.00000 1.34479 0.07165 -0.00971
277.10000 1.52411 0.06257 -0.02004
277.20000 1.47508 0.24251 0.02058
277.30000 1.38625 0.30305 0.03519
277.40000 1.43704 0.27880 -0.02695
277.50000 1.40776 0.24212 0.00939
277.60000 1.43406 0.34945 0.03415
277.70000 1.41912 0.25561 -0.00652
277.80000 1.44530 0.06051 0.01796
277.90000 1.39714 -0.04366 -0.02186
278.00000 1.40164 -0.16470 -0.01722
278.10000 1.37730 -0.33312 0.01899
278.20000 1.39531 -0.26497 -0.04182
278.30000 1.42481 -0.07492 -0.08531
278.40000 1.43706 0.05691 0.03290
278.50000 1.42616 0.19028 0.00915
278.60000 1.38084 0.25848 0.01433
278.70000 1.40928 0.07871 -0.02368
278.80000 1.43884 0.04123 0.01876
278.90000 1.41745 -0.06972 0.02661
279.00000 1.41659 -0.17058 -0.05756
279.10000 1.44281 -0.01533 0.05378
279.20000 1.41253 0.05090 -0.04424
279.30000 1.38709 0.03692 0.00376
279.40000 1.36102 0.09971 0.00504
279.50000 1.36746 -0.06747 -0.05763
279.60000 1.46406 -0.22740 -0.01424
279.70000 1.40854 -0.25823 0.01096
279.80000 1.44080 -0.04002 -0.07001
279.90000 1.40966 0.09611 0.02537
280.00000 1.39409 0.05246 0.06882
280.10000 1.37081 -0.16872 0.07480
280.20000 1.44806 -0.14408 -0.05043
280.30000 1.38247 0.05240 -0.04312
280.40000 1.41156 0.28662 0.04000
280.50000 1.47861 0.20656 0.04742
280.60000 1.41445 -0.03343 0.03141
280.70000 1.41666 -0.17594 -0.03970
280.80000 1.41584 -0.12289 -0.02447
280.90000 1.41491 -0.06093 0.04954
281.00000 1.45104 -0.04517 -0.02882
281.10000 1.42333 -0.01387 -0.01591
281.20000 1.40481 0.02838 0.04417
281.30000 1.44741 -0.02838 -0.03028
281.40000 1.42405 -0.07038 0.02614
281.50000 1.43379 -0.02940 -0.00343
281.60000 1.43712 -0.01100 0.01398
281.70000 1.40341 -0.00946 0.00214
281.80000 1.45192 0.06167 -0.00967
281.90000 1.41240 0.04886 -0.05211
282.00000 1.41018 -0.09480 -0.00404
282.10000 1.44015 -0.08089 0.03278
282.20000 1.39452 -0.04056 0.07164
282.30000 1.39821 -0.04327 0.03444
282.40000 1.46061 -0.00708 -0.03611
282.50000 1.40016 -0.08869 0.04060
282.60000 1.40448 -0.14305 0.00835
282.70000 1.40264 -0.26159 0.03253
282.80000 1.41417 -0.05424 0.00281
282.90000 1.44038 -0.00776 -0.12616
283.00000 1.39613 0.07643 -0.00309
283.10000 1.45233 0.16610 0.08881
283.20000 1.40703 0.24065 -0.04922
283.30000 1.42532 0.14369 -0.00303
283.40000 1.45231 0.05075 -0.00370
283.50000 1.38233 -0.09999 -0.02404
283.60000 1.44323 -0.10933 0.03012
283.70000 1.42551 -0.16976 0.04704
283.80000 1.38264 -0.16880 -0.01582
283.90000 1.38131 -0.07412 -0.04539
284.00000 1.49025 -0.04227 -0.02211
284.10000 1.40601 -0.00100 -0.01706
284.20000 1.38173 0.10459 0.04357
284.30000 1.40368 0.12785 -0.01085
284.40000 1.45963 0.01724 -0.01361
284.50000 1.37384 -0.20123 -0.03801
284.60000 1.44470 -0.34624 -0.01740
284.70000 1.49198 -0.11330 0.00240
284.80000 1.37482 -0.09759 -0.00720
284.90000 1.37958 -0.16425 0.06655
285.00000 1.39526 0.02735 -0.00677
285.10000 1.46944 0.15864 -0.00753
285.20000 1.44900 0.25375 -0.03253
285.30000 1.37961 0.13495 0.03750
285.40000 1.34576 0.15397 0.01773
285.50000 1.45875 0.03349 -0.03992
285.60000 1.39949 -0.11094 0.02747
285.70000 1.35903 -0.01036 -0.03005
285.80000 1.44097 0.00849 -0.02637
285.90000 1.44232 0.00068 -0.04945
286.00000 1.40491 -0.02088 0.07054
286.10000 1.45193 0.01773 -0.06958
286.20000 1.42336 0.16724 -0.00114
286.30000 1.40646 0.07698 0.01406
286.40000 1.45755 -0.04328 -0.00289
286.50000 1.37731 -0.04688 -0.01790
286.60000 1.42163 0.10008 0.01692
286.70000 1.43649 0.19118 -0.03404
286.80000 1.44559 0.01367 -0.03540
286.90000 1.38945 0.01218 0.04387
287.00000 1.44808 0.00958 0.01083
287.10000 1.43970 0.05228 -0.04177
287.20000 1.32478 0.09326 -0.01674
287.30000 1.44086 0.04680 0.01116
287.40000 1.44240 0.03307 -0.00787
287.50000 1.41200 0.05961 -0.01450
287.60000 1.41108 0.06835 -0.00566
287.70000 1.35263 -0.08541 -0.00034
287.80000 1.45987 -0.14203 0.01402
287.90000 1.45013 -0.12237 0.00545
288.00000 1.38714 -0.06582 -0.00207
288.10000 1.40586 -0.03516 -0.02304
288.20000 1.47706 -0.02704 0.01261
288.30000 1.39743 -0.10964 0.00448
288.40000 1.45729 -0.09641 -0.00781
288.50000 1.38902 0.08853 -0.03452
288.60000 1.39361 0.07255 0.01922
288.70000 1.41588 -0.02583 0.01999
288.80000 1.41199 -0.17804 0.01517
288.90000 1.49189 -0.16748 0.01776
289.00000 1.38412 -0.12141 0.02430
289.10000 1.40450 0.03068 -0.09382
289.20000 1.37007 0.04555 0.00104
289.30000 1.43009 0.09087 0.04847
289.40000 1.38043 0.05574 0.02376
289.50000 1.38166 0.00771 0.02201
289.60000 1.36529 -0.03065 0.00747
289.70000 1.47255 0.03855 0.00763
289.80000 1.32581 0.00014 -0.00331
289.90000 1.41860 0.15510 -0.02184
290.00000 1.47665 0.28907 0.01376
290.10000 1.39889 0.28269 -0.07007
290.20000 1.38953 0.23791 0.05453
290.30000 1.42232 -0.09257 0.00336
290.40000 1.43074 -0.23303 -0.03273
290.50000 1.41354 -0.10454 -0.01956
290.60000 1.42492 -0.01629 0.03134
290.70000 1.44459 -0.00617 0.02118
290.80000 1.42867 -0.00277 -0.02786
290.90000 1.39135 -0.12538 0.02170
291.00000 1.41051 -0.14118 -0.02399
291.10000 1.49720 -0.17971 0.03051
291.20000 1.37490 -0.14856 -0.02279
291.30000 1.42677 -0.17788 0.00818
291.40000 1.42583 -0.17478 -0.06541
291.50000 1.38311 0.02659 0.01592
291.60000 1.42903 0.08437 -0.02454
291.70000 1.46394 0.18576 0.04235
291.80000 1.38192 0.12365 -0.00473
291.90000 1.38743 -0.18791 -0.05127
292.00000 1.41978 -0.23653 0.03358
292.10000 1.45345 -0.08045 -0.03102
292.20000 1.40684 0.40348 0.04242
292.30000 1.46588 0.35392 -0.04729
292.40000 1.40154 -0.11490 -0.03966
292.50000 1.42275 -0.17671 0.00191
292.60000 1.40017 -0.00012 -0.02586
292.70000 1.42728 -0.02670 0.00508
292.80000 1.36223 -0.07032 -0.07118
292.90000 1.42646 -0.12455 0.04196
293.00000 1.47092 -0.23095 -0.05661
293.10000 1.33123 -0.09229 0.02776
293.20000 1.42863 0.07539 -0.01931
293.30000 1.47966 0.14799 0.01889
293.40000 1.34292 0.18091 -0.01258
293.50000 1.42870 -0.01094 -0.02003
293.60000 1.41793 -0.03396 -0.02767
293.70000 1.39105 0.11352 0.00169
293.80000 1.39913 0.01074 -0.02119
293.90000 1.39991 -0.07703 -0.00818
294.00000 1.42744 0.00817 0.02917
294.10000 1.42832 -0.00085 -0.03062
294.20000 1.40576 -0.06344 -0.00042
294.30000 1.42776 -0.04964 0.03892
294.40000 1.42795 0.22483 0.06651
294.50000 1.44754 0.09160 -0.00346
294.60000 1.39689 0.03657 -0.04727
294.70000 1.38030 0.04206 -0.01312
294.80000 1.42752 0.06714 0.05129
294.90000 1.56025 -0.01806 0.01395
295.00000 1.37123 0.02705 0.00503
295.10000 1.32659 0.25325 0.04079
295.20000 1.48640 0.28258 -0.05171
295.30000 1.41922 0.29836 0.03593
295.40000 1.37511 0.04354 0.01458
295.50000 1.41718 -0.11873 -0.01645
295.60000 1.42766 -0.23566 0.04114
295.70000 1.44881 -0.18692 0.01342
295.80000 1.42727 -0.07654 -0.04548
295.90000 1.37906 -0.01454 0.05468
296.00000 1.41453 -0.05225 -0.01990
296.10000 1.34834 -0.24300 -0.00255
296.20000 1.43950 -0.08694 0.02832
296.30000 1.39192 0.21110 -0.03249
296.40000 1.41330 0.23197 0.01807
296.50000 1.45883 0.14294 -0.00728
296.60000 1.45866 0.07201 -0.02470
296.70000 1.40011 0.09693 -0.02190
296.80000 1.38905 0.26440 -0.01590
296.90000 1.48065 0.21418 0.02388
297.00000 1.39296 0.26485 -0.03528
297.10000 1.42075 0.23325 0.05170
297.20000 1.39298 -0.04092 0.01504
297.30000 1.41559 -0.11976 -0.04175
297.40000 1.39872 -0.11163 -0.05671
297.50000 1.42981 -0.06241 0.10005
297.60000 1.45647 0.15666 0.00884
297.70000 1.39028 0.17684 -0.00946
297.80000 1.40337 0.19610 -0.00459
297.90000 1.44918 0.01454 0.01729
298.00000 1.41751 -0.09961 0.01397
298.10000 1.39452 -0.11845 -0.02401
298.20000 1.44635 -0.11483 -0.03643
298.30000 1.47710 -0.14504 0.05210
298.40000 1.39973 -0.09110 0.01181
298.50000 1.38309 -0.06333 0.02814
298.60000 1.46665 0.09051 -0.01840
298.70000 1.38437 0.22290 0.00953
298.80000 1.41150 0.00720 0.02635
298.90000 1.42246 -0.13016 -0.01008
299.00000 1.45981 -0.22976 0.07341
299.10000 1.43205 -0.18421 0.00345
299.20000 1.39028 -0.17833 0.06432
299.30000 1.43672 -0.08737 -0.09033
299.40000 1.41601 -0.10698 0.01300
299.50000 1.36379 0.09572 0.01638
299.60000 1.41661 0.12952 -0.01712
299.70000 1.42884 0.04998 -0.04861
299.80000 1.42441 -0.20250 0.03647
299.90000 1.36604 -0.24779 0.04281
300.00000 1.41800 -0.11499 -0.00516
300.10000 1.43861 0.11646 -0.00044
300.20000 1.42749 0.19274 0.03114
300.30000 1.36466 0.43316 0.00402
300.40000 1.45344 0.58570 -0.02198
300.50000 1.40113 0.16603 -0.01933
300.60000 1.37908 -0.17464 -0.03152
300.70000 1.41854 -0.38634 0.02365
300.80000 1.47655 -0.28331 0.03210
300.90000 1.40105 0.00482 0.02036
301.00000 1.36868 -0.02485 0.00119
301.10000 1.37791 -0.12885 0.01540
301.20000 1.39114 -0.03039 0.01478
301.30000 1.46926 -0.05344 0.01527
301.40000 1.42594 0.01298 -0.01092
301.50000 1.42049 0.11887 0.00477
301.60000 1.44634 0.08327 -0.01121
301.70000 1.35526 0.13999 -0.00061
301.80000 1.43948 0.21390 0.00682
301.90000 1.44164 0.30842 0.00669
302.00000 1.42159 0.17275 0.01265
302.10000 1.37469 -0.06627 0.03396
302.20000 1.39136 -0.10151 0.05611
302.30000 1.45901 -0.05353 -0.00200
302.40000 1.42401 0.02784 0.02408
302.50000 1.42510 0.02983 -0.03907
302.60000 1.36279 -0.23969 0.00925
302.70000 1.47319 -0.35391 0.01785
302.80000 1.40169 -0.23298 0.00135
302.90000 1.34733 -0.04326 -0.03126
303.00000 1.48393 0.00600 0.04078
303.10000 1.43304 -0.11014 -0.05865
303.20000 1.35378 -0.03662 0.00582
303.30000 1.35625 0.14057 -0.03222
303.40000 1.45972 0.10064 -0.03488
303.50000 1.45851 -0.01443 0.02474
303.60000 1.43660 -0.13498 -0.00874
303.70000 1.38304 -0.18976 -0.05682
303.80000 1.40614 -0.02741 0.06812
303.90000 1.41193 0.03827 0.01157
304.00000 1.44256 0.12376 -0.01550
304.10000 1.42959 0.10029 0.00241
304.20000 1.39264 -0.00406 0.01663
304.30000 1.47910 -0.05715 0.04294
304.40000 1.39029 -0.14479 -0.00685
304.50000 1.40215 -0.17772 0.03852
304.60000 1.42860 -0.10079 0.00443
304.70000 1.41610 -0.03736 -0.00384
304.80000 1.45530 0.16951 0.02945
304.90000 1.45307 0.14830 0.01453
305.00000 1.39552 0.21790 -0.01571
305.10000 1.38723 0.24985 -0.03546
305.20000 1.40465 0.04970 0.03351
305.30000 1.44102 0.01074 -0.01855
305.40000 1.39096 -0.12003 -0.04406
305.50000 1.45663 -0.14646 0.03357
305.60000 1.42093 -0.08936 0.01392
305.70000 1.39887 -0.12146 0.03017
305.80000 1.45990 -0.10792 -0.01428
305.90000 1.45377 -0.19297 -0.01800
306.00000 1.35861 -0.12019 0.04683
306.10000 1.41280 -0.08862 -0.05606
306.20000 1.44511 0.00084 0.06535
306.30000 1.38421 0.11031 0.02663
306.40000 1.33882 0.17616 -0.03454
306.50000 1.44189 0.09163 -0.01571
306.60000 1.49187 -0.04506 0.01796
306.70000 1.38315 -0.15378 -0.01120
306.80000 1.38747 -0.12530 0.00380
306.90000 1.36461 -0.15654 -0.01017
307.00000 1.47286 -0.23225 -0.03296
307.10000 1.48335 -0.18751 -0.01060
307.20000 1.31748 -0.03007 0.04576
307.30000 1.39402 0.00448 -0.05930
307.40000 1.42059 0.01930 -0.07933
307.50000 1.37178 -0.05954 0.04178
307.60000 1.43948 -0.09045 0.02419
307.70000 1.45585 -0.00379 -0.03183
307.80000 1.40270 0.07204 -0.01284
307.90000 1.40759 0.22857 -0.00468
308.00000 1.43313 0.18547 -0.00666
308.10000 1.41809 0.12930 -0.01190
308.20000 1.39370 -0.08594 -0.01824
308.30000 1.43289 -0.20149 0.04030
308.40000 1.41252 -0.15650 -0.04407
308.50000 1.40494 -0.06189 0.00841
308.60000 1.38029 -0.02833 0.01580
308.70000 1.40636 0.00804 -0.02670
308.80000 1.42184 0.04314 -0.00553
308.90000 1.40653 0.23238 -0.00778
309.00000 1.39813 0.14100 -0.00475
309.10000 1.43601 -0.03983 -0.01178
309.20000 1.41490 0.12722 0.01302
309.30000 1.39924 0.35909 0.04597
309.40000 1.41098 0.07529 0.02479
309.50000 1.40307 -0.13900 -0.02557
309.60000 1.45520 -0.12650 -0.06486
309.70000 1.48436 -0.18848 0.03946
309.80000 1.38529 -0.18046 0.00530
309.90000 1.37820 -0.27294 0.01752
310.00000 1.45102 -0.16496 -0.02668
310.10000 1.37925 -0.15857 -0.01673
310.20000 1.43800 -0.03678 0.05630
310.30000 1.44005 0.06983 -0.01725
310.40000 1.34628 -0.01136 -0.00667
310.50000 1.49596 -0.12282 0.03871
310.60000 1.40636 -0.00558 -0.01455
310.70000 1.37876 -0.09262 0.00049
310.80000 1.48915 -0.15623 -0.00631
310.90000 1.37902 -0.12429 0.01589
311.00000 1.43819 0.05012 0.01661
311.10000 1.38181 0.07910 0.01342
311.20000 1.39757 0.01226 0.06541
311.30000 1.44151 0.08413 -0.01453
311.40000 1.41512 0.06810 -0.00650
311.50000 1.41529 -0.04536 -0.00976
311.60000 1.40262 0.02221 0.04290
311.70000 1.40871 -0.07825 -0.03883
311.80000 1.51718 -0.05764 -0.07122
311.90000 1.41053 -0.06896 0.00904
312.00000 1.38627 0.00304 -0.03121
312.10000 1.46957 -0.00409 -0.02019
312.20000 1.43150 -0.07160 0.04467
312.30000 1.45113 -0.06216 -0.08201
312.40000 1.44393 -0.13468 0.01688
312.50000 1.45459 -0.06088 0.03297
312.60000 1.36715 0.13127 -0.05579
312.70000 1.43422 0.05600 0.00649
312.80000 1.34215 -0.00103 0.02257
312.90000 1.41983 -0.01217 0.06554
313.00000 1.40745 -0.08291 -0.01431
313.10000 1.42294 -0.12930 -0.01045
313.20000 1.42609 -0.02621 0.00083
313.30000 1.44388 -0.06295 -0.04825
313.40000 1.39649 -0.15127 -0.02925
313.50000 1.40877 -0.29002 0.01439
313.60000 1.40705 -0.26406 0.07976
313.70000 1.43275 -0.18921 -0.04303
313.80000 1.39667 -0.21803 -0.01054
313.90000 1.45997 -0.16219 0.09878
314.00000 1.40250 -0.00929 0.00957
314.10000 1.38459 0.21742 -0.01137
314.20000 1.39692 0.14890 0.00910
314.30000 1.47450 0.07463 0.02341
314.40000 1.40365 0.06296 -0.02595
314.50000 1.41628 0.03392 -0.15939
314.60000 1.44667 -0.09520 0.00115
314.70000 1.31213 0.18209 0.05258
314.80000 1.49756 0.16058 -0.03629
314.90000 1.46251 0.07769 -0.04125
315.00000 1.37658 0.04203 -0.04838
315.10000 1.38861 0.05881 0.02348
315.20000 1.45703 0.11515 -0.01047
315.30000 1.42279 0.11705 0.03244
315.40000 1.37190 0.23259 -0.00483
315.50000 1.45170 0.23445 -0.00059
315.60000 1.39980 0.10610 -0.02431
315.70000 1.39818 -0.12215 -0.02409
315.80000 1.47724 -0.22044 0.07326
315.90000 1.44209 -0.23188 0.00748
316.00000 1.37729 -0.23061 -0.07083
316.10000 1.41052 -0.05781 0.02745
316.20000 1.46653 -0.03573 0.04634
316.30000 1.49387 -0.09293 -0.02172
316.40000 1.35391 -0.03300 -0.04400
316.50000 1.39778 -0.05364 0.06136
316.60000 1.49869 0.07254 0.03317
316.70000 1.37946 0.00327 0.01281
316.80000 1.40615 -0.09243 -0.04808
316.90000 1.42582 -0.19023 0.02535
317.00000 1.48715 -0.11781 0.00116
317.10000 1.37985 0.10385 -0.03675
317.20000 1.39541 0.20007 0.05117
317.30000 1.41041 -0.01571 -0.01778
317.40000 1.45228 -0.11106 -0.00934
317.50000 1.45511 0.08688 -0.01388
317.60000 1.44686 0.33741 0.00837
317.70000 1.40099 0.27330 0.03859
317.80000 1.37583 0.04701 0.01284
317.90000 1.41423 -0.08098 0.05508
318.00000 1.45096 0.03995 -0.01601
318.10000 1.38928 0.14956 -0.07384
318.20000 1.39954 0.15112 -0.01573
318.30000 1.38869 0.21075 0.00936
318.40000 1.44329 0.20142 0.00098
318.50000 1.45960 -0.04585 -0.05148
318.60000 1.38451 0.05479 0.02611
318.70000 1.47875 0.12825 0.01911
318.80000 1.36785 0.14823 -0.00608
318.90000 1.40092 0.11069 0.01660
319.00000 1.41890 0.15233 0.02307
319.10000 1.35946 0.24305 -0.00235
319.20000 1.40023 0.14838 -0.01154
319.30000 1.39699 0.06886 -0.02209
319.40000 1.41305 0.13982 -0.00491
319.50000 1.45929 -0.01904 0.02144
319.60000 1.34194 -0.05424 0.09311
319.70000 1.48704 0.18612 -0.09370
319.80000 1.34166 0.24651 -0.01255
319.90000 1.41626 0.26128 -0.01565
320.00000 1.36377 -0.01509 -0.00104
320.10000 1.40462 -0.13430 -0.02134
320.20000 1.44793 -0.04396 -0.02272
320.30000 1.34149 0.06890 0.02784
320.40000 1.39054 0.01542 0.02545
320.50000 1.42066 -0.00576 -0.08523
320.60000 1.37474 0.12558 0.05519
320.70000 1.42609 0.26631 -0.03732
320.80000 1.42346 0.13070 0.00813
320.90000 1.40951 -0.04766 0.03228
321.00000 1.45771 0.04741 -0.05956
321.10000 1.42025 -0.11428 0.02428
321.20000 1.38077 -0.15153 0.05422
321.30000 1.40791 -0.14220 -0.02992
321.40000 1.42596 -0.14426 -0.01424
321.50000 1.45747 0.05157 0.04144
321.60000 1.39905 0.17251 0.01258
321.70000 1.32019 0.12401 -0.00915
321.80000 1.50553 0.01866 0.01416
321.90000 1.40717 -0.06879 0.05571
322.00000 1.40290 -0.01890 -0.06894
322.10000 1.36816 0.03349 -0.01547
322.20000 1.39810 0.03952 0.06409
322.30000 1.38154 0.06368 -0.05813
322.40000 1.47472 -0.01538 -0.01235
322.50000 1.38496 0.07073 -0.00813
322.60000 1.42815 -0.07826 0.01228
322.70000 1.43566 -0.17297 -0.01660
322.80000 1.40108 -0.12580 0.06371
322.90000 1.47623 -0.04420 -0.01889
323.00000 1.44125 -0.05271 0.01441
323.10000 1.34632 -0.03958 -0.00144
323.20000 1.43473 0.03003 0.03334
323.30000 1.39958 -0.06517 -0.03748
323.40000 1.42652 -0.10444 -0.03711
323.50000 1.37964 -0.24248 0.02693
323.60000 1.40850 -0.07185 0.05238
323.70000 1.38944 -0.08606 0.02721
323.80000 1.48144 -0.05145 -0.06374
323.90000 1.45999 0.10629 0.01014
324.00000 1.37812 0.01171 0.03863
324.10000 1.38662 -0.10356 -0.00284
324.20000 1.39815 0.04081 -0.00402
324.30000 1.42441 0.05896 0.00036
324.40000 1.41057 -0.09081 0.00408
324.50000 1.43569 -0.04409 0.03479
324.60000 1.40525 -0.04644 -0.06410
324.70000 1.40148 0.17850 0.01799
324.80000 1.45481 0.06596 0.02990
324.90000 1.40947 0.08910 0.01341
325.00000 1.37433 0.14225 0.00592
325.10000 1.48207 0.14510 0.01864
325.20000 1.36260 0.22148 -0.04765
325.30000 1.40183 0.20299 -0.01616
325.40000 1.36860 0.13347 0.06163
325.50000 1.42168 0.09210 0.02455
325.60000 1.44829 0.06198 -0.04127
325.70000 1.44620 -0.13969 -0.00660
325.80000 1.37263 -0.02959 -0.00281
325.90000 1.43239 0.15732 -0.01195
326.00000 1.36536 0.24001 -0.03736
326.10000 1.48052 0.12534 0.00353
326.20000 1.39768 0.04026 -0.04329
326.30000 1.28893 -0.00608 -0.03434
326.40000 1.47969 -0.02004 0.06567
326.50000 1.41398 -0.06606 0.01114
326.60000 1.37880 -0.05651 0.06267
326.70000 1.42505 0.02040 -0.03531
326.80000 1.49026 0.10566 -0.04123
326.90000 1.38133 0.14085 0.06446
327.00000 1.43170 0.19202 0.04023
327.10000 1.37869 -0.06478 -0.04108
327.20000 1.47439 -0.18067 -0.00922
327.30000 1.37445 0.04475 0.02697
327.40000 1.36949 -0.00511 -0.03136
327.50000 1.42132 -0.02549 -0.07783
327.60000 1.43720 0.01940 -0.00284
327.70000 1.41360 0.21117 0.03036
327.80000 1.39852 0.22005 -0.01973
327.90000 1.43786 0.24223 -0.04558
328.00000 1.40607 0.08173 0.01179
328.10000 1.46807 0.07688 -0.05486
328.20000 1.28953 0.06058 -0.02419
328.30000 1.37466 0.07779 0.00935
328.40000 1.46721 0.27167 -0.02586
328.50000 1.34966 0.14701 -0.02760
328.60000 1.37486 0.01560 0.03246
328.70000 1.46356 -0.03962 -0.02934
328.80000 1.45358 -0.10322 -0.01756
328.90000 1.38997 -0.06273 0.02739
329.00000 1.39067 -0.14365 -0.01163
329.10000 1.42738 -0.14288 -0.03002
329.20000 1.47053 0.04950 0.00460
329.30000 1.36811 0.20465 -0.00044
329.40000 1.34215 0.19561 -0.02688
329.50000 1.43943 0.11361 -0.00858
329.60000 1.48322 -0.02237 -0.03239
329.70000 1.44265 -0.09721 0.03392
329.80000 1.39973 -0.10277 0.00707
329.90000 1.48210 -0.10731 -0.03670
330.00000 1.38298 -0.07854 -0.03675
330.10000 1.37249 -0.10582 0.03819
330.20000 1.47116 -0.29715 -0.04724
330.30000 1.37682 -0.13334 -0.00040
330.40000 1.36555 0.09985 0.06072
330.50000 1.38861 0.20301 0.00510
330.60000 1.44190 0.07529 -0.02462
330.70000 1.41727 -0.06509 0.01894
330.80000 1.33928 -0.37825 0.00774
330.90000 1.40259 -0.28943 0.04458
331.00000 1.39796 -0.07713 -0.05501
331.10000 1.45156 0.21511 -0.05941
331.20000 1.40682 0.18341 0.03739
331.30000 1.40675 0.06617 0.01844
331.40000 1.43830 -0.14059 -0.02780
331.50000 1.40665 -0.25816 -0.04331
331.60000 1.36838 -0.41265 0.01831
331.70000 1.45996 -0.31644 -0.02403
331.80000 1.35622 0.02545 -0.01920
331.90000 1.37265 0.06078 -0.01496
332.00000 1.44860 0.08225 0.04708
332.10000 1.40947 0.26456 -0.04583
332.20000 1.42605 0.37921 0.00489
332.30000 1.48840 0.21034 0.02179
332.40000 1.36893 0.03549 -0.03774
332.50000 1.42494 -0.03450 0.03273
332.60000 1.41418 -0.06936 0.02209
332.70000 1.39950 -0.10477 -0.07631
332.80000 1.38745 -0.04390 0.04731
332.90000 1.41833 0.01389 -0.00143
333.00000 1.44541 0.17364 0.00619
333.10000 1.41467 0.32508 0.00657
333.20000 1.39760 0.23566 -0.02598
333.30000 1.40663 -0.03405 0.02680
333.40000 1.42536 0.03911 0.04721
333.50000 1.41697 0.06446 0.02789
333.60000 1.44956 0.15676 -0.05224
333.70000 1.40472 0.26126 -0.04611
333.80000 1.39902 0.14317 0.05063
333.90000 1.41367 0.17059 -0.01946
334.00000 1.41756 0.04660 -0.02816
334.10000 1.42918 0.01601 -0.00462
334.20000 1.39626 0.04502 0.04042
334.30000 1.42253 -0.02758 0.06199
334.40000 1.41659 -0.05724 0.02689
334.50000 1.39917 0.06974 -0.02926
334.60000 1.41831 0.36078 0.08446
334.70000 1.44475 0.13880 -0.00165
334.80000 1.41536 -0.05805 -0.04044
334.90000 1.39963 -0.12603 0.05447
335.00000 1.42107 0.00072 -0.05350
335.10000 1.45675 0.07708 0.02093
335.20000 1.41613 0.00623 -0.00848
335.30000 1.41247 -0.09796 0.01307
335.40000 1.40406 -0.07206 0.01476
335.50000 1.38597 0.11730 -0.02678
335.60000 1.42655 -0.04526 0.01064
335.70000 1.44362 -0.22137 0.08126
335.80000 1.40777 -0.26159 -0.02909
335.90000 1.38226 -0.15561 -0.04960
336.00000 1.40828 0.00604 0.03769
336.10000 1.43391 0.10615 -0.02468
336.20000 1.44163 0.20030 -0.00575
336.30000 1.42163 0.23986 0.00815
336.40000 1.40620 0.06701 -0.00145
336.50000 1.37653 0.02583 -0.02193
336.60000 1.42801 0.07608 0.03037
336.70000 1.40424 -0.08785 0.00576
336.80000 1.46019 -0.11603 -0.05480
336.90000 1.38349 -0.03165 -0.01527
337.00000 1.41992 0.01739 0.00902
337.10000 1.42249 0.03350 -0.01638
337.20000 1.40719 -0.01215 0.02371
337.30000 1.44106 0.11174 -0.05175
337.40000 1.37059 0.12260 -0.01145
337.50000 1.44315 -0.03936 0.01321
337.60000 1.42873 -0.09394 0.01644
337.70000 1.33010 -0.02778 -0.02885
337.80000 1.46392 0.00950 0.03699
337.90000 1.42775 0.06065 0.02924
338.00000 1.34828 0.06435 -0.06259
338.10000 1.44455 0.04944 -0.03094
338.20000 1.47293 -0.05960 -0.01100
338.30000 1.39378 -0.06313 0.03874
338.40000 1.38231 -0.11233 -0.01019
338.50000 1.43796 0.05360 -0.04673
338.60000 1.38354 0.13641 -0.00855
338.70000 1.44944 0.00018 0.01150
338.80000 1.45226 0.11616 -0.00546
338.90000 1.39262 0.32540 -0.00484
339.00000 1.40989 0.41522 0.05219
339.10000 1.44500 0.15528 0.01487
339.20000 1.34492 0.07425 -0.05337
339.30000 1.45174 -0.02080 -0.01413
339.40000 1.39501 -0.01659 0.06547
339.50000 1.38997 0.11578 -0.02760
339.60000 1.48763 -0.00952 -0.00027
339.70000 1.36038 -0.18835 -0.06073
339.80000 1.39216 -0.26863 0.06253
339.90000 1.43663 -0.35148 -0.04159
340.00000 1.42758 -0.13626 -0.03577
340.10000 1.33981 -0.10707 0.03617
340.20000 1.39525 0.03532 -0.04454
340.30000 1.45499 0.25778 -0.00680
340.40000 1.41989 0.10067 0.03084
340.50000 1.41011 -0.02578 0.00519
340.60000 1.37766 -0.04153 -0.06319
340.70000 1.43784 -0.04668 0.03225
340.80000 1.45406 -0.02389 -0.01512
340.90000 1.35394 0.25725 0.00239
341.00000 1.39610 0.31266 -0.00299
341.10000 1.46770 0.13309 -0.03278
341.20000 1.44836 -0.01164 -0.02782
341.30000 1.38890 -0.00771 0.03103
341.40000 1.39193 -0.03967 0.01492
341.50000 1.44783 0.11869 -0.01687
341.60000 1.48431 0.21446 -0.01284
341.70000 1.39356 0.23669 -0.06588
341.80000 1.41639 0.18263 0.03777
341.90000 1.42357 0.08586 -0.01952
342.00000 1.37513 0.09663 0.02299
342.10000 1.47731 0.09670 -0.05231
342.20000 1.44788 0.13718 0.01377
342.30000 1.42809 0.12940 0.03083
342.40000 1.46915 -0.02056 0.00371
342.50000 1.43579 -0.10292 -0.02147
342.60000 1.38647 0.03788 0.03223
342.70000 1.45763 0.22876 0.04370
342.80000 1.39258 0.08159 -0.01265
342.90000 1.41662 -0.16557 0.06278
343.00000 1.48542 -0.31502 -0.01649
343.10000 1.41367 -0.19972 -0.01761
343.20000 1.37237 -0.08056 0.03728
343.30000 1.39760 -0.04846 -0.04306
343.40000 1.42748 -0.12586 -0.02028
343.50000 1.36743 0.06718 0.01609
343.60000 1.44620 -0.07704 0.00260
343.70000 1.42376 -0.10202 -0.02594
343.80000 1.39068 -0.25924 -0.05063
343.90000 1.43426 -0.26337 0.03928
344.00000 1.43990 -0.05367 -0.01529
344.10000 1.36766 0.11312 0.03999
344.20000 1.45755 0.18718 0.01721
344.30000 1.42952 0.00773 0.04280
344.40000 1.37175 -0.17042 0.03560
344.50000 1.43620 -0.02381 -0.05152
344.60000 1.38787 0.19084 -0.02806
344.70000 1.45318 0.20271 -0.01284
344.80000 1.44902 -0.00848 -0.01834
344.90000 1.39667 -0.14971 0.01982
345.00000 1.42084 -0.19458 0.01995
345.10000 1.47373 -0.17486 -0.02947
345.20000 1.37028 -0.07981 0.05980
345.30000 1.37689 -0.02969 -0.02546
345.40000 1.48867 -0.01368 -0.04121
345.50000 1.41022 -0.22451 -0.02314
345.60000 1.33752 -0.31999 0.04633
345.70000 1.42622 -0.09765 -0.04693
345.80000 1.48542 0.11579 -0.05419
345.90000 1.39623 0.13096 0.02833
346.00000 1.40577 0.19172 0.00184
346.10000 1.38987 0.05388 0.01361
346.20000 1.43865 0.01174 -0.00081
346.30000 1.38687 0.02750 -0.02602
346.40000 1.42106 -0.23827 -0.01440
346.50000 1.39078 -0.23797 0.02841
346.60000 1.37036 -0.32092 -0.00490
346.70000 1.38913 -0.11357 -0.08419
346.80000 1.43880 -0.04444 0.03792
346.90000 1.34358 -0.03626 0.02909
347.00000 1.45849 0.16194 -0.01799
347.10000 1.44476 0.12679 -0.05398
347.20000 1.39890 -0.07388 -0.00395
347.30000 1.46155 -0.29231 0.01940
347.40000 1.41049 -0.20499 0.03759
347.50000 1.38797 -0.02463 -0.01487
347.60000 1.42244 0.24380 0.04951
347.70000 1.40112 0.35528 -0.00772
347.80000 1.44258 0.19303 -0.05246
347.90000 1.39337 0.15112 0.01587
348.00000 1.37656 0.00651 -0.04004
348.10000 1.45420 -0.08676 -0.03696
348.20000 1.42102 -0.16892 0.04167
348.30000 1.41339 0.08778 -0.05380
348.40000 1.43518 0.02115 -0.00106
348.50000 1.43916 -0.23943 -0.00111
348.60000 1.38071 -0.25219 -0.00207
348.70000 1.43289 -0.19567 0.05246
348.80000 1.45825 -0.03218 -0.07006
348.90000 1.36215 0.06352 0.02106
349.00000 1.42462 0.03890 0.04616
349.10000 1.41235 0.10406 -0.01421
349.20000 1.42461 0.10423 -0.03867
349.30000 1.47301 -0.05417 0.03040
349.40000 1.37490 -0.02747 0.03891
349.50000 1.42399 0.03994 0.00447
349.60000 1.41164 -0.12037 -0.02057
349.70000 1.40324 -0.28553 -0.02404
349.80000 1.43539 -0.35407 -0.01798
349.90000 1.43703 -0.17119 -0.00799
350.00000 1.38321 -0.00088 -0.01811
350.10000 1.38147 0.16040 0.05377
350.20000 1.41905 0.07322 0.05970
350.30000 1.42292 0.01320 -0.02086
350.40000 1.46245 -0.09083 -0.08428
350.50000 1.41713 -0.19044 -0.05494
350.60000 1.33805 -0.22250 0.04611
350.70000 1.36621 -0.22902 0.01994
350.80000 1.48547 -0.05956 -0.07291
350.90000 1.39514 0.01947 0.02569
351.00000 1.37688 0.09356 0.00581
351.10000 1.42723 0.11109 -0.04795
351.20000 1.42958 -0.19124 -0.03149
351.30000 1.38542 -0.40490 -0.00461
351.40000 1.45040 -0.49117 0.04341
351.50000 1.42656 -0.12030 0.06662
351.60000 1.37837 0.13956 -0.01828
351.70000 1.44968 0.15867 0.00821
351.80000 1.36507 0.04596 -0.01624
351.90000 1.44157 0.11099 0.01235
352.00000 1.41318 0.17436 0.00609
352.10000 1.37676 0.07628 -0.06415
352.20000 1.48753 -0.00276 0.00337
352.30000 1.44584 0.03349 0.00180
352.40000 1.37950 0.23441 -0.01489
352.50000 1.42802 0.29668 -0.04854
352.60000 1.43196 -0.09288 0.02874
352.70000 1.44385 -0.37483 -0.00739
352.80000 1.41390 -0.28823 -0.01149
352.90000 1.39152 0.03883 0.01151
353.00000 1.43891 0.12000 0.01347
353.10000 1.44777 0.10425 -0.04596
353.20000 1.35454 0.07415 0.00386
353.30000 1.38534 -0.01508 0.02647
353.40000 1.38776 -0.21987 -0.00218
353.50000 1.46857 -0.06555 -0.02093
353.60000 1.39605 0.07050 -0.00058
353.70000 1.43253 0.19766 -0.03152
353.80000 1.43107 0.14853 0.00529
353.90000 1.43080 0.24069 0.05250
354.00000 1.37826 0.23895 -0.00650
354.10000 1.38609 -0.08604 -0.00787
354.20000 1.41876 -0.17466 0.03280
354.30000 1.38283 -0.09524 0.01507
354.40000 1.43076 0.02000 0.00598
354.50000 1.45419 0.06629 -0.03795
354.60000 1.39253 0.21209 -0.05149
354.70000 1.43170 0.01287 0.02557
354.80000 1.40923 -0.04646 -0.03123
354.90000 1.39360 -0.10572 -0.00947
355.00000 1.40903 -0.12887 -0.00123
355.10000 1.44234 -0.04107 0.01204
355.20000 1.47346 0.21862 -0.02100
355.30000 1.36587 0.26049 -0.03845
355.40000 1.41963 0.27086 0.03080
355.50000 1.46007 0.21148 -0.03741
355.60000 1.38798 -0.02654 0.02209
355.70000 1.43662 -0.12578 0.04266
355.80000 1.41238 -0.10966 0.04050
355.90000 1.43829 -0.11708 -0.00520
356.00000 1.40003 -0.04984 0.04237
356.10000 1.39262 0.00797 -0.02948
356.20000 1.40313 -0.01422 -0.01874
356.30000 1.43483 0.14379 -0.02828
356.40000 1.42029 0.17407 0.00334
356.50000 1.39958 0.05092 -0.05664
356.60000 1.41567 -0.16403 0.09141
356.70000 1.42996 -0.11468 0.00668
356.80000 1.38093 -0.04781 -0.04044
356.90000 1.46828 0.16649 -0.02346
357.00000 1.43827 0.19003 0.04536
357.10000 1.36561 0.06979 -0.02101
357.20000 1.41850 -0.06006 -0.02616
357.30000 1.42690 0.01423 0.05945
357.40000 1.43549 0.11664 -0.06143
357.50000 1.40626 0.10955 -0.00328
357.60000 1.41699 -0.18049 0.04544
357.70000 1.47073 -0.36186 -0.00684
357.80000 1.39274 -0.11134 -0.02188
357.90000 1.40647 0.12516 0.05066
358.00000 1.47318 0.20407 0.02327
358.10000 1.41056 0.25994 -0.00526
358.20000 1.42424 0.19903 -0.00447
358.30000 1.45752 -0.09695 0.00741
358.40000 1.38868 -0.19709 -0.02456
358.50000 1.41979 -0.13772 -0.07969
358.60000 1.46225 0.18493 0.05484
358.70000 1.38060 0.26524 0.00558
358.80000 1.39133 0.31537 0.01688
358.90000 1.41431 0.34401 0.01449
359.00000 1.39982 0.12184 0.06260
359.10000 1.40895 0.03392 -0.02435
359.20000 1.39962 0.19912 -0.01178
359.30000 1.44613 0.17723 -0.00122
359.40000 1.39260 0.17978 0.06212
359.50000 1.43215 0.14104 -0.00464
359.60000 1.38852 -0.07628 -0.03768
359.70000 1.40622 -0.28704 0.03160
359.80000 1.38850 -0.16383 0.02204
359.90000 1.41780 -0.04526 -0.03166
360.00000 1.37800 -0.02060 -0.03184
360.10000 1.42113 -0.00450 -0.07444
360.20000 1.42094 0.26310 0.04563
360.30000 1.37290 0.39746 0.01391
360.40000 1.42719 0.29234 -0.05331
360.50000 1.36527 0.08102 -0.00057
360.60000 1.36902 -0.08039 0.01648
360.70000 1.47575 -0.01143 0.00002
360.80000 1.42201 0.05034 0.06978
360.90000 1.41575 0.05636 -0.00974
361.00000 1.40714 0.09915 -0.02372
361.10000 1.44507 0.12130 0.00240
361.20000 1.38106 0.03673 0.01728
361.30000 1.42854 -0.11305 0.02067
361.40000 1.41302 -0.07401 -0.06399
361.50000 1.43876 -0.01331 -0.03891
361.60000 1.37549 0.06559 -0.01166
361.70000 1.38652 0.26146 0.05896
361.80000 1.43897 0.45421 -0.04537
361.90000 1.38651 0.13215 0.01439
362.00000 1.39655 -0.06078 -0.01326
362.10000 1.45248 -0.04391 -0.00601
362.20000 1.36008 -0.03822 0.01504
362.30000 1.41082 0.00257 -0.02299
362.40000 1.38080 0.15346 0.00273
362.50000 1.39668 0.00097 -0.00619
362.60000 1.37631 -0.28319 -0.00126
362.70000 1.38958 -0.22061 0.01604
362.80000 1.41000 -0.02449 0.05504
362.90000 1.42565 0.03978 -0.05159
363.00000 1.39901 0.07571 0.00339
363.10000 1.42000 0.07932 0.01867
363.20000 1.43978 -0.04053 -0.02216
363.30000 1.37492 -0.06993 0.01642
363.40000 1.45384 -0.25041 -0.02043
363.50000 1.42252 -0.13509 0.03604
363.60000 1.41730 0.04049 -0.00210
363.70000 1.38843 0.05439 -0.03846
363.80000 1.42623 -0.16990 0.00628
363.90000 1.43146 -0.14423 0.02391
364.00000 1.38010 0.10159 -0.02170
364.10000 1.41067 0.15347 -0.01791
364.20000 1.44590 -0.07809 -0.00782
364.30000 1.35312 -0.17446 0.00977
364.40000 1.37495 0.07895 0.03368
364.50000 1.39537 0.17037 -0.00483
364.60000 1.47786 0.04770 -0.00720
364.70000 1.44688 -0.08802 -0.01486
364.80000 1.33994 0.01342 0.01290
364.90000 1.40684 0.23339 -0.00549
365.00000 1.47134 0.16309 -0.02810
365.10000 1.38383 -0.08628 0.02029
365.20000 1.45655 -0.08826 0.05720
365.30000 1.37135 0.00828 -0.02049
365.40000 1.40520 0.04180 -0.00620
365.50000 1.42940 0.14677 0.03735
365.60000 1.41910 0.17519 0.00467
365.70000 1.41179 0.21857 -0.07186
365.80000 1.37983 0.08028 0.05768
365.90000 1.36644 0.06579 0.00207
366.00000 1.42132 -0.02989 -0.02325
366.10000 1.40808 -0.02025 0.01701
366.20000 1.37650 -0.34899 0.02856
366.30000 1.47153 -0.40195 -0.07799
366.40000 1.39718 -0.27659 0.03632
366.50000 1.39024 -0.31721 0.04510
366.60000 1.48338 -0.10870 0.00914
366.70000 1.41825 -0.08630 0.02115
366.80000 1.36191 0.00260 -0.03736
366.90000 1.52284 -0.08966 0.07188
367.00000 1.40406 -0.19456 -0.02677
367.10000 1.36980 -0.29316 0.01118
367.20000 1.43003 -0.27865 0.02463
367.30000 1.42082 -0.39348 -0.01349
367.40000 1.37962 -0.41869 0.01321
367.50000 1.43931 -0.00247 -0.04450
367.60000 1.42043 0.16198 -0.01639
367.70000 1.43168 0.21130 0.07720
367.80000 1.40993 0.20188 -0.06983
367.90000 1.42378 0.07671 0.04838
368.00000 1.46323 -0.06042 -0.02009
368.10000 1.41420 -0.02214 -0.03236
368.20000 1.42263 -0.14011 0.07817
368.30000 1.45299 -0.12122 -0.07124
368.40000 1.41383 -0.18465 0.03745
368.50000 1.39071 -0.16794 0.01121
368.60000 1.41433 -0.03356 -0.03049
368.70000 1.39192 -0.10621 0.04220
368.80000 1.40042 -0.13457 0.00142
368.90000 1.49383 -0.10401 -0.03612
369.00000 1.38999 -0.08272 0.06586
369.10000 1.37467 -0.04606 -0.03278
369.20000 1.47598 -0.03013 -0.07297
369.30000 1.35667 -0.06163 -0.00037
369.40000 1.45647 0.03957 0.02073
369.50000 1.42537 -0.21690 -0.02036
369.60000 1.37963 -0.27746 0.00989
369.70000 1.43274 -0.17734 -0.01197
369.80000 1.46408 -0.10918 -0.03829
369.90000 1.35837 -0.28292 0.00914
370.00000 1.36384 -0.22885 -0.03209
370.10000 1.45660 -0.18615 0.02440
370.20000 1.40804 -0.09355 0.00014
370.30000 1.37343 -0.15501 -0.01728
370.40000 1.44677 -0.11161 0.02165
370.50000 1.44601 -0.03584 0.00243
370.60000 1.39193 0.14120 -0.02806
370.70000 1.44444 0.19527 -0.02345
370.80000 1.34258 0.19103 0.00386
370.90000 1.49325 0.05166 -0.00262
371.00000 1.39724 -0.05607 -0.02088
371.10000 1.40573 -0.06703 0.01213
371.20000 1.42573 0.00291 -0.03994
371.30000 1.40982 0.15852 0.03136
371.40000 1.41765 0.09362 0.00172
371.50000 1.39863 -0.07352 -0.02723
371.60000 1.39274 -0.21877 -0.02331
371.70000 1.42851 -0.01024 -0.03072
371.80000 1.37982 0.24365 -0.01430
371.90000 1.44669 0.22130 0.04182
372.00000 1.44896 0.06046 -0.03235
372.10000 1.41381 -0.00172 -0.07065
372.20000 1.47063 0.06030 -0.01645
372.30000 1.45742 0.14668 0.06405
372.40000 1.35517 0.14113 0.07359
372.50000 1.40465 0.20399 0.01374
372.60000 1.46146 0.08905 -0.00169
372.70000 1.37060 0.02453 -0.01162
372.80000 1.45859 -0.10061 0.01976
372.90000 1.38444 -0.24876 -0.00066
373.00000 1.39127 -0.15630 -0.03146
373.10000 1.39773 0.02049 0.02773
373.20000 1.41809 -0.01230 -0.00515
373.30000 1.43624 0.05718 0.02718
373.40000 1.41752 -0.17972 -0.02517
373.50000 1.35445 -0.44084 0.01226
373.60000 1.42815 -0.26370 -0.02721
373.70000 1.42973 -0.18231 -0.01178
373.80000 1.42277 -0.13425 -0.00671
373.90000 1.37798 -0.10585 -0.01200
374.00000 1.42007 -0.08570 0.01664
374.10000 1.41412 -0.09835 0.03670
374.20000 1.39315 -0.11131 -0.05188
374.30000 1.40412 -0.08356 0.01467
374.40000 1.46093 0.00744 0.00343
374.50000 1.40680 0.09517 -0.01369
374.60000 1.33745 0.08772 0.01274
374.70000 1.44419 -0.00711 -0.04069
374.80000 1.46821 0.08531 -0.01498
374.90000 1.45206 -0.04430 0.00826
375.00000 1.36183 -0.06851 -0.00733
375.10000 1.40918 0.01267 -0.05291
375.20000 1.45757 0.06393 0.06153
375.30000 1.43636 0.09492 -0.02792
375.40000 1.48069 0.19979 0.02565
375.50000 1.37939 0.36268 -0.05122
375.60000 1.38664 0.37520 0.00894
375.70000 1.42566 0.07189 0.03981
375.80000 1.44943 0.07799 -0.05638
375.90000 1.37920 0.14438 -0.02446
376.00000 1.45847 -0.02452 0.07714
376.10000 1.39690 -0.11833 -0.03944
376.20000 1.39294 -0.03701 -0.02433
376.30000 1.42603 0.04082 -0.00551
376.40000 1.38584 0.11116 -0.05983
376.50000 1.44128 0.07339 0.05923
376.60000 1.44647 -0.01108 0.05912
376.70000 1.38270 -0.06105 -0.10302
376.80000 1.39017 0.07547 0.03252
376.90000 1.43606 0.04537 0.04962
377.00000 1.48972 0.13177 0.00155
377.10000 1.36731 0.17952 -0.02299
377.20000 1.40865 0.07763 -0.02491
377.30000 1.39488 -0.01701 0.03718
377.40000 1.45624 -0.20304 -0.02120
377.50000 1.43982 -0.26753 -0.03110
377.60000 1.38041 -0.19335 -0.00216
377.70000 1.39695 -0.14303 0.05286
377.80000 1.47993 -0.14229 -0.01503
377.90000 1.41431 -0.16231 0.01456
378.00000 1.35557 -0.03523 0.03433
378.10000 1.43059 -0.05306 -0.01507
378.20000 1.40944 0.04866 -0.01232
378.30000 1.39584 0.07531 0.00900
378.40000 1.44069 -0.03327 0.02745
378.50000 1.46181 -0.04571 0.01229
378.60000 1.38839 -0.02442 0.01701
378.70000 1.42398 0.14423 -0.03069
378.80000 1.45340 0.07618 -0.02019
378.90000 1.29308 -0.01155 -0.03683
379.00000 1.49645 -0.00383 0.06165
379.10000 1.37629 -0.04479 0.06022
379.20000 1.32486 -0.33796 -0.01841
379.30000 1.44930 -0.34793 -0.04326
379.40000 1.41031 -0.22508 0.01905
379.50000 1.38651 -0.17626 -0.00755
379.60000 1.45803 -0.00599 0.00232
379.70000 1.43247 0.12707 -0.05464
379.80000 1.45448 0.04010 0.03979
379.90000 1.38796 -0.04723 0.02133
380.00000 1.39213 -0.16705 0.00018
380.10000 1.43024 -0.06841 -0.01907
380.20000 1.39518 0.07935 -0.06164
380.30000 1.44265 0.18010 0.03118
380.40000 1.34601 0.07821 0.02606
380.50000 1.44549 -0.00145 0.00112
380.60000 1.40054 -0.02945 -0.00841
380.70000 1.37318 0.00661 -0.00746
380.80000 1.46001 -0.02543 0.01832
380.90000 1.44504 -0.10467 0.00116
381.00000 1.39920 0.06971 -0.03238
381.10000 1.35368 0.25056 0.04757
381.20000 1.40639 0.39221 0.02084
381.30000 1.44173 0.33424 -0.02575
381.40000 1.52921 0.19504 -0.04992
381.50000 1.40823 0.08349 0.04228
381.60000 1.33370 0.01640 0.04601
381.70000 1.43048 0.10647 -0.00007
381.80000 1.44223 0.03260 -0.02472
381.90000 1.43062 0.03852 0.00095
382.00000 1.39115 0.15291 0.02635
382.10000 1.42964 0.07793 0.02522
382.20000 1.44267 0.14166 -0.02172
382.30000 1.45753 0.12813 -0.01396
382.40000 1.36379 0.02187 -0.01806
382.50000 1.43698 0.03613 0.02500
382.60000 1.40703 0.04787 -0.04123
382.70000 1.41016 0.04224 0.03610
382.80000 1.38980 0.09373 0.00253
382.90000 1.44205 -0.06699 -0.03516
383.00000 1.37571 -0.26894 -0.01183
383.10000 1.38866 -0.16444 -0.08220
383.20000 1.40775 -0.13397 0.03955
383.30000 1.44666 -0.21654 -0.00785
383.40000 1.36649 -0.26411 -0.05016
383.50000 1.40637 -0.25154 -0.03771
383.60000 1.39059 -0.03131 -0.07480
383.70000 1.42794 -0.00687 0.01954
383.80000 1.46183 -0.02578 -0.02876
383.90000 1.38072 0.00567 -0.08303
384.00000 1.47910 0.02856 0.03142
384.10000 1.40959 0.06131 0.00638
384.20000 1.40884 0.01114 -0.06644
384.30000 1.41696 0.17200 0.05708
384.40000 1.44846 0.16962 -0.00828
384.50000 1.39229 0.23585 0.05184
384.60000 1.39136 0.28882 -0.04462
384.70000 1.43199 0.26861 -0.01443
384.80000 1.42010 -0.00636 0.04616
384.90000 1.39081 -0.29554 -0.02743
385.00000 1.42674 -0.17086 0.03485
385.10000 1.40864 -0.05909 -0.03470
385.20000 1.45905 -0.04181 -0.02144
385.30000 1.40737 0.08281 0.03073
385.40000 1.49369 -0.06825 0.00624
385.50000 1.35247 -0.09267 -0.03328
385.60000 1.40714 0.07526 0.00789
385.70000 1.46681 0.18273 0.00913
385.80000 1.37660 0.14057 0.02980
385.90000 1.37146 -0.01313 -0.03075
386.00000 1.49053 -0.08289 -0.06518
386.10000 1.40785 -0.16392 0.06798
386.20000 1.37283 -0.28004 0.05775
386.30000 1.40166 -0.23206 -0.05323
386.40000 1.43778 -0.06678 -0.01768
386.50000 1.40877 0.06610 0.03075
386.60000 1.39939 -0.00881 0.02701
386.70000 1.41041 -0.15784 -0.02683
386.80000 1.37485 -0.05696 -0.01896
386.90000 1.34356 0.01115 0.04431
387.00000 1.45353 0.01364 0.01338
387.10000 1.41871 0.05220 -0.00725
387.20000 1.41169 0.08289 -0.04289
387.30000 1.40447 -0.05443 -0.00525
387.40000 1.38869 -0.13470 -0.02578
387.50000 1.39368 -0.04014 -0.00437
387.60000 1.39144 0.02953 -0.02909
387.70000 1.43827 0.05352 -0.02941
387.80000 1.48265 0.05607 0.01112
387.90000 1.36342 0.03647 0.00800
388.00000 1.41388 0.10576 -0.00656
388.10000 1.44838 0.06409 0.00415
388.20000 1.33095 0.03501 -0.03164
388.30000 1.40283 0.09226 0.00504
388.40000 1.46913 0.10877 0.06313
388.50000 1.40005 -0.03354 -0.01251
388.60000 1.39980 -0.09695 -0.05827
388.70000 1.43663 -0.22135 -0.02761
388.80000 1.41106 -0.05245 0.05846
388.90000 1.38058 0.04365 0.00241
389.00000 1.43471 -0.16538 -0.06088
389.10000 1.45774 -0.25382 -0.00151
389.20000 1.38419 -0.11873 0.02994
389.30000 1.43202 0.16357 -0.03982
389.40000 1.46430 0.16476 0.02550
389.50000 1.35392 -0.02120 0.02406
389.60000 1.45070 -0.00677 0.04525
389.70000 1.45016 0.18839 -0.04075
389.80000 1.36137 0.04620 -0.02496
389.90000 1.41603 -0.12947 0.04617
390.00000 1.32871 -0.20675 0.05315
390.10000 1.43793 -0.31556 0.01799
390.20000 1.39199 -0.14968 -0.09419
390.30000 1.34369 -0.13894 -0.04308
390.40000 1.44421 -0.41186 0.03211
390.50000 1.48207 -0.33623 -0.02084
390.60000 1.40339 -0.15864 0.03346
390.70000 1.40456 0.04486 -0.05147
390.80000 1.38315 0.11841 -0.00891
390.90000 1.42763 0.12639 0.02970
391.00000 1.45192 0.18218 -0.02286
391.10000 1.40110 0.11496 -0.01642
391.20000 1.38049 0.07272 -0.01283
391.30000 1.43331 0.01838 0.00907
391.40000 1.41398 0.14878 0.00110
391.50000 1.40207 0.06167 -0.00562
391.60000 1.45304 -0.09957 0.00090
391.70000 1.37243 -0.19351 0.00344
391.80000 1.43359 -0.03172 -0.03137
391.90000 1.43616 0.03784 -0.00254
392.00000 1.38995 0.19471 0.04189
392.10000 1.46024 0.01966 0.01040
392.20000 1.35583 -0.04000 0.02065
392.30000 1.35585 0.16547 0.00904
392.40000 1.46118 0.09477 -0.13686
392.50000 1.48436 -0.20102 0.09075
392.60000 1.39841 -0.06533 -0.02842
392.70000 1.40430 0.14441 -0.03063
392.80000 1.47368 0.19396 0.03083
392.90000 1.39893 0.24544 0.00127
393.00000 1.42949 0.32190 -0.02397
393.10000 1.41854 0.30974 0.00810
393.20000 1.41937 0.16326 0.01234
393.30000 1.37179 -0.20452 0.00297
393.40000 1.33599 -0.22828 -0.02045
393.50000 1.53509 -0.11465 -0.02278
393.60000 1.46507 -0.02439 -0.00571
393.70000 1.44027 0.01958 -0.01482
393.80000 1.42564 0.03120 0.01668
393.90000 1.41358 0.03151 -0.01746
394.00000 1.37914 -0.04491 0.00451
394.10000 1.39303 0.00431 -0.04296
394.20000 1.44718 0.07372 0.05720
394.30000 1.40153 0.20928 -0.02188
394.40000 1.43076 0.36748 0.01852
394.50000 1.44756 0.35200 0.02255
394.60000 1.31821 0.21685 0.03180
394.70000 1.44385 0.14995 0.01788
394.80000 1.47782 -0.16074 0.02243
394.90000 1.41416 -0.14693 -0.01710
395.00000 1.43403 0.00364 0.00249
395.10000 1.38810 -0.00883 -0.01970
395.20000 1.39790 0.02269 0.02007
395.30000 1.47045 -0.04386 0.05600
395.40000 1.37088 -0.08580 -0.02748
395.50000 1.41095 -0.04539 0.00954
395.60000 1.46496 0.14920 -0.03010
395.70000 1.40721 0.32101 0.03660
395.80000 1.48706 0.35446 0.01360
395.90000 1.41321 0.32856 0.00378
396.00000 1.32405 -0.03410 -0.02020
396.10000 1.39749 -0.22326 0.03095
396.20000 1.48208 -0.22209 -0.02967
396.30000 1.42078 -0.16193 0.03360
396.40000 1.40901 0.05561 0.04048
396.50000 1.42153 0.13860 0.01847
396.60000 1.42681 0.03149 -0.00926
396.70000 1.36560 0.15564 0.00186
396.80000 1.42669 -0.13870 -0.09351
396.90000 1.39278 -0.26031 0.04205
397.00000 1.40024 -0.12279 -0.00829
397.10000 1.45233 -0.08781 0.00235
397.20000 1.41806 -0.11809 0.03098
397.30000 1.42356 -0.14235 -0.01493
397.40000 1.41212 -0.14669 -0.02802
397.50000 1.45460 0.01209 0.01154
397.60000 1.41519 0.14303 0.02811
397.70000 1.36977 0.04847 -0.00365
397.80000 1.43320 -0.13690 0.00247
397.90000 1.46874 0.00336 -0.02157
398.00000 1.40779 0.04991 0.02144
398.10000 1.42235 -0.01465 0.00580
398.20000 1.42192 0.01561 -0.00180
398.30000 1.37105 -0.03119 0.01939
398.40000 1.39121 -0.03766 0.00827
398.50000 1.42512 -0.05423 -0.03139
398.60000 1.48148 -0.15187 0.01829
398.70000 1.40949 -0.17570 -0.00994
398.80000 1.37685 -0.14595 0.03063
398.90000 1.42519 0.04384 -0.02421
399.00000 1.45762 -0.07043 0.00761
399.10000 1.41639 -0.20126 0.00859
399.20000 1.48050 -0.24233 0.08912
399.30000 1.37256 -0.19082 -0.02039
399.40000 1.43430 0.00976 -0.00585
399.50000 1.40863 0.21067 -0.01958
399.60000 1.38013 0.12117 0.07294
399.70000 1.42350 0.14934 -0.04713
399.80000 1.46030 0.11279 0.01303
399.90000 1.34830 0.03345 0.02974
400.00000 1.37424 0.09563 -0.00011
400.10000 1.42554 0.19284 0.00701
400.20000 1.40592 0.21064 -0.04800
400.30000 1.40950 0.06617 0.01525
400.40000 1.39764 -0.12934 0.00087
400.50000 1.42810 -0.27257 -0.00351
400.60000 1.46352 -0.06918 -0.05766
400.70000 1.42645 0.08136 0.08614
400.80000 1.40279 0.07601 -0.02455
400.90000 1.39836 -0.08005 -0.00094
401.00000 1.43023 0.03129 0.02491
401.10000 1.43673 0.05306 0.00264
401.20000 1.34029 0.17097 -0.04788
401.30000 1.43925 0.19418 0.03722
401.40000 1.52747 -0.09052 0.02092
401.50000 1.38278 -0.15526 -0.04438
401.60000 1.38216 -0.08378 0.00003
401.70000 1.47347 0.28746 0.05381
401.80000 1.48794 0.46086 -0.04371
401.90000 1.37033 0.14099 -0.00455
402.00000 1.41278 -0.18554 -0.01261
402.10000 1.42999 -0.06546 -0.04143
402.20000 1.36945 0.01414 -0.01393
402.30000 1.40872 0.00725 0.01823
402.40000 1.44997 -0.09182 -0.00788
402.50000 1.40627 -0.12442 -0.00041
402.60000 1.48328 -0.04801 0.00419
402.70000 1.35602 0.14509 0.00319
402.80000 1.35899 0.16418 -0.00676
402.90000 1.54045 0.04757 0.02054
403.00000 1.37624 -0.12729 0.02300
403.10000 1.31456 -0.24196 -0.00987
403.20000 1.47802 -0.23001 0.04290
403.30000 1.44975 0.05585 0.06200
403.40000 1.42721 0.18902 -0.03457
403.50000 1.34475 0.16621 -0.01205
403.60000 1.39605 0.03286 0.04690
403.70000 1.47358 0.11216 -0.02591
403.80000 1.39096 0.09023 -0.01181
403.90000 1.43883 -0.05312 0.06415
404.00000 1.43130 -0.21755 0.01061
404.10000 1.42745 -0.06408 -0.00970
404.20000 1.42632 -0.07652 0.05442
404.30000 1.40967 -0.18646 0.01208
404.40000 1.34125 -0.10627 -0.02337
404.50000 1.45786 -0.18282 0.11519
404.60000 1.42821 -0.28695 0.02652
404.70000 1.39270 -0.05749 -0.01991
404.80000 1.37255 -0.02997 -0.04669
404.90000 1.38846 -0.03557 -0.04441
405.00000 1.49106 0.16028 0.02046
405.10000 1.37651 0.19806 -0.03174
405.20000 1.38799 0.18155 -0.05101
405.30000 1.39195 0.13437 0.01104
405.40000 1.40084 0.11772 -0.01288
405.50000 1.42553 0.11091 -0.02801
405.60000 1.44351 0.16948 0.05578
405.70000 1.37417 0.11813 -0.01288
405.80000 1.41657 -0.02821 0.00009
405.90000 1.38585 -0.01518 -0.01444
406.00000 1.40890 -0.10453 0.10972
406.10000 1.46849 -0.04371 -0.00876
406.20000 1.37169 -0.12625 -0.04541
406.30000 1.45739 0.03884 0.05344
406.40000 1.45498 0.22923 0.04828
406.50000 1.36062 0.11682 -0.03956
406.60000 1.43532 -0.07265 -0.00945
406.70000 1.43293 -0.08377 -0.04760
406.80000 1.31961 0.07031 0.00880
406.90000 1.47702 0.16134 0.02468
407.00000 1.44831 0.16816 -0.02852
407.10000 1.40025 0.12505 -0.01651
407.20000 1.36904 0.01563 0.02069
407.30000 1.40532 0.11747 0.01443
407.40000 1.44408 0.02192 -0.04467
407.50000 1.38480 -0.12424 0.02016
407.60000 1.36463 -0.18883 -0.01066
407.70000 1.43858 -0.11291 0.02148
407.80000 1.50869 0.11212 -0.00852
407.90000 1.40404 0.09840 -0.02704
408.00000 1.37356 -0.03007 0.01888
408.10000 1.46748 -0.09699 -0.02349
408.20000 1.35739 0.00537 0.00310
408.30000 1.37264 0.01144 -0.03502
408.40000 1.47912 0.08054 -0.03730
408.50000 1.39735 0.14584 0.01377
408.60000 1.36739 0.04941 0.00870
408.70000 1.42936 -0.02246 -0.03636
408.80000 1.41206 -0.00912 0.00449
408.90000 1.42253 -0.19248 -0.02232
409.00000 1.38686 -0.30792 -0.02050
409.10000 1.39177 -0.35773 -0.06049
409.20000 1.42799 -0.08036 -0.03376
409.30000 1.39438 0.10278 0.09623
409.40000 1.39556 0.12659 -0.02461
409.50000 1.46669 0.06240 -0.05108
409.60000 1.37057 0.05704 0.03143
409.70000 1.47290 0.17358 0.02420
409.80000 1.40135 0.21748 -0.03775
409.90000 1.42125 0.25560 0.00248
410.00000 1.41659 0.04878 0.08843
410.10000 1.39165 -0.19221 -0.01408
410.20000 1.43778 -0.09226 0.02711
410.30000 1.45756 -0.06587 0.00931
410.40000 1.40216 0.10552 -0.06751
410.50000 1.40666 0.08041 0.03711
410.60000 1.42919 -0.00247 -0.04045
410.70000 1.44354 -0.04183 0.03090
410.80000 1.45644 -0.16327 0.04305
410.90000 1.40743 -0.05128 -0.01142
411.00000 1.40767 0.18429 -0.02008
411.10000 1.45257 0.05031 0.01773
411.20000 1.37760 -0.32765 0.02891
411.30000 1.44519 -0.38937 -0.00213
411.40000 1.43423 -0.18409 -0.02221
411.50000 1.37219 -0.02201 -0.01275
411.60000 1.46300 0.00135 -0.01470
411.70000 1.43287 0.04751 0.00238
411.80000 1.39870 -0.00416 0.03092
411.90000 1.35122 -0.02369 -0.01342
412.00000 1.42202 -0.15272 0.00616
412.10000 1.43097 -0.22167 0.07301
412.20000 1.40281 -0.19107 0.02695
412.30000 1.37727 -0.08326 -0.00216
412.40000 1.41561 0.08411 -0.04339
412.50000 1.42602 0.33282 0.01136
412.60000 1.40197 0.41041 0.05577
412.70000 1.39980 0.27964 -0.01678
412.80000 1.47424 0.10811 -0.05763
412.90000 1.44787 -0.13461 -0.05067
413.00000 1.40809 -0.08778 -0.00482
413.10000 1.37623 0.05345 0.00789
413.20000 1.37859 -0.05863 -0.03475
413.30000 1.42372 -0.09637 -0.05486
413.40000 1.44179 0.03918 0.04417
413.50000 1.44126 0.21848 0.00811
413.60000 1.45105 0.07800 0.00575
413.70000 1.32694 0.18368 0.00943
413.80000 1.45034 0.10670 0.02199
413.90000 1.40150 0.08053 -0.01631
414.00000 1.43811 -0.17829 -0.07636
414.10000 1.32136 -0.28151 0.04009
414.20000 1.52157 -0.15358 0.01583
414.30000 1.41441 -0.10412 -0.00819
414.40000 1.36581 -0.10597 -0.03063
414.50000 1.42415 -0.02564 0.02566
414.60000 1.45819 0.29136 0.03637
414.70000 1.36047 0.29461 -0.08105
414.80000 1.41045 0.07934 -0.00916
414.90000 1.45760 -0.07651 -0.00190
415.00000 1.38517 -0.18402 0.05533
415.10000 1.42074 0.00346 -0.01386
415.20000 1.45551 0.16104 0.01280
415.30000 1.42256 0.18287 -0.05807
415.40000 1.37017 0.13027 0.06073
415.50000 1.38994 0.06187 -0.01447
415.60000 1.40835 0.08927 -0.01925
415.70000 1.44036 0.05155 0.03231
415.80000 1.39447 0.02994 -0.00895
415.90000 1.39406 -0.06571 0.00396
416.00000 1.46814 0.12519 -0.00960
416.10000 1.38401 0.00093 0.03451
416.20000 1.39544 -0.19707 0.00408
416.30000 1.49408 -0.23059 0.05283
416.40000 1.41794 -0.01334 -0.00873
416.50000 1.41894 0.13450 0.01641
416.60000 1.41509 0.17134 0.02776
416.70000 1.39464 0.05367 -0.01989
416.80000 1.41102 0.03594 -0.05650
416.90000 1.41024 0.27278 -0.00479
417.00000 1.39996 0.12669 0.02522
417.10000 1.42904 -0.01710 -0.03621
417.20000 1.43801 -0.10174 0.04145
417.30000 1.37590 -0.13720 -0.03203
417.40000 1.40498 -0.06296 -0.00663
417.50000 1.42485 0.03413 -0.04870
417.60000 1.37595 0.24248 0.00612
417.70000 1.40521 0.19513 0.00416
417.80000 1.40535 0.00666 0.06824
417.90000 1.40553 -0.01409 -0.06610
418.00000 1.41183 0.10115 -0.05397
418.10000 1.44063 0.01966 0.06785
418.20000 1.42729 -0.02215 0.01084
418.30000 1.39593 0.05346 -0.05206
418.40000 1.38719 0.04971 0.01576
418.50000 1.43756 0.13715 0.08124
418.60000 1.46124 0.17001 -0.00587
418.70000 1.38903 0.07356 0.03458
418.80000 1.41422 0.06639 0.01186
418.90000 1.48099 0.23532 0.04102
419.00000 1.37947 0.12033 0.01133
419.10000 1.39885 -0.10446 -0.04194
419.20000 1.41077 -0.15381 -0.00900
419.30000 1.46730 -0.09920 0.06590
419.40000 1.39047 0.07383 0.02696
419.50000 1.44808 -0.03023 -0.08105
419.60000 1.41785 -0.03252 0.04883
419.70000 1.39587 0.04616 0.00196
419.80000 1.45342 0.12889 -0.03158
419.90000 1.40569 0.26634 0.02951
420.00000 1.36959 0.19543 0.04119
420.10000 1.44113 -0.07004 0.00183
420.20000 1.45532 -0.42665 -0.07843
420.30000 1.35887 -0.39822 0.02432
420.40000 1.40152 -0.12612 0.03601
420.50000 1.46195 -0.03430 0.00895
420.60000 1.39623 0.06774 -0.01738
420.70000 1.41966 0.05183 -0.07921
420.80000 1.40484 0.04931 0.04010
420.90000 1.34964 -0.13684 0.04784
421.00000 1.45049 -0.21137 -0.02558
421.10000 1.39238 -0.05960 0.06118
421.20000 1.42660 -0.00180 -0.00292
421.30000 1.42593 -0.01540 -0.02784
421.40000 1.37749 -0.03791 -0.03430
421.50000 1.37263 -0.12387 0.03309
421.60000 1.46359 -0.17786 -0.02684
421.70000 1.43881 -0.09234 -0.02229
421.80000 1.36075 -0.09987 0.01389
421.90000 1.44770 -0.05789 0.02978
422.00000 1.39719 0.03617 -0.07824
422.10000 1.39491 0.01289 0.03034
422.20000 1.41487 -0.04213 0.02118
422.30000 1.37971 -0.05468 -0.04776
422.40000 1.37789 -0.02522 -0.00489
422.50000 1.48644 0.12375 0.05546
422.60000 1.41314 0.13047 0.00759
422.70000 1.35107 0.09150 -0.04539
422.80000 1.45104 -0.01797 0.01951
422.90000 1.35482 -0.11848 -0.06260
423.00000 1.40122 -0.09598 0.01825
423.10000 1.44851 0.03960 -0.02440
423.20000 1.40573 -0.07071 -0.01286
423.30000 1.45385 -0.35422 -0.00518
423.40000 1.40072 -0.33401 -0.00681
423.50000 1.41309 -0.18110 0.02668
423.60000 1.40285 -0.20693 0.02930
423.70000 1.43513 -0.07998 -0.04875
423.80000 1.42123 0.00580 -0.02657
423.90000 1.36018 0.10723 -0.04226
424.00000 1.38176 0.17247 0.04990
424.10000 1.50747 0.03934 0.00129
424.20000 1.36039 0.01502 0.03619
424.30000 1.40843 0.06335 0.00762
424.40000 1.45286 -0.06324 0.02939
424.50000 1.42691 0.01144 0.01873
424.60000 1.38100 -0.07997 0.00774
424.70000 1.33199 -0.01310 -0.00430
424.80000 1.50478 -0.04267 -0.01721
424.90000 1.44474 -0.06595 0.02727
425.00000 1.34529 -0.11426 0.01997
425.10000 1.33370 0.24223 0.00048
425.20000 1.49511 0.31093 0.00009
425.30000 1.45654 0.02411 0.01386
425.40000 1.38299 -0.14465 -0.03510
425.50000 1.43718 -0.11669 -0.02802
425.60000 1.36140 0.10697 0.01040
425.70000 1.38067 0.08798 0.02873
425.80000 1.46341 -0.11513 -0.04331
425.90000 1.38635 -0.32957 -0.02337
426.00000 1.38876 -0.30744 0.03305
426.10000 1.42081 -0.22372 -0.05299
426.20000 1.47541 -0.05285 -0.03759
426.30000 1.38746 0.13609 0.01926
426.40000 1.47304 0.05110 -0.05650
426.50000 1.36987 -0.04123 0.01679
426.60000 1.39255 -0.02602 0.00028
426.70000 1.45295 0.02055 0.00990
426.80000 1.42243 0.05182 -0.00859
426.90000 1.42452 -0.02168 -0.08453
427.00000 1.43306 -0.09022 -0.01504
427.10000 1.42377 -0.02867 0.02443
427.20000 1.37204 0.12120 -0.02072
427.30000 1.38569 0.21148 0.03332
427.40000 1.48948 0.17486 -0.03674
427.50000 1.39468 0.19545 0.00087
427.60000 1.40216 0.14039 0.01730
427.70000 1.45737 0.01837 -0.00187
427.80000 1.44491 -0.00254 0.00716
427.90000 1.39514 -0.02894 0.00980
428.00000 1.36937 0.22199 -0.03252
428.10000 1.41763 0.28866 0.02327
428.20000 1.43240 0.20209 0.07955
428.30000 1.41050 -0.07566 -0.02926
428.40000 1.37301 -0.18718 0.02006
428.50000 1.39104 -0.10575 0.00156
428.60000 1.39743 0.02906 -0.00018
428.70000 1.38418 -0.04992 0.01962
428.80000 1.42798 -0.00007 0.00746
428.90000 1.45001 0.20246 0.01413
429.00000 1.38490 0.30758 -0.00717
429.10000 1.36788 0.38797 -0.02178
429.20000 1.43942 0.23533 -0.02350
429.30000 1.42005 0.27085 -0.01889
429.40000 1.35833 0.05936 0.03022
429.50000 1.45752 -0.05783 -0.02359
429.60000 1.38978 0.03652 -0.01969
429.70000 1.41691 0.23973 0.01378
429.80000 1.40704 0.23212 -0.02407
429.90000 1.37829 0.11485 0.03644
430.00000 1.38631 0.05998 -0.03043
430.10000 1.47644 0.08520 0.06270
430.20000 1.43017 0.25581 0.04828
430.30000 1.37272 0.14225 -0.01413
430.40000 1.39613 -0.09933 0.02910
430.50000 1.42119 -0.34222 0.03022
430.60000 1.45295 -0.24068 -0.05180
430.70000 1.42850 -0.02865 0.02351
430.80000 1.37572 0.00301 -0.01980
430.90000 1.37158 -0.02029 -0.04023
431.00000 1.40509 0.00629 -0.02441
431.10000 1.46267 -0.17927 0.10160
431.20000 1.37934 -0.11261 -0.00489
431.30000 1.39000 0.17166 -0.03255
431.40000 1.43122 0.25950 0.07604
431.50000 1.40415 0.13709 0.00509
431.60000 1.40074 0.21579 0.02567
431.70000 1.42903 0.12084 -0.01379
431.80000 1.40524 -0.03146 -0.04484
431.90000 1.45572 -0.26028 0.02645
432.00000 1.33606 -0.20697 0.09450
432.10000 1.39663 0.01481 -0.03066
432.20000 1.45858 0.20112 0.04110
432.30000 1.36913 -0.02099 0.05607
432.40000 1.42635 -0.02868 -0.04372
432.50000 1.43969 0.01363 -0.03865
432.60000 1.37900 0.07109 0.04110
432.70000 1.41308 0.00791 0.00673
432.80000 1.43862 -0.05591 -0.08082
432.90000 1.40624 0.28990 -0.04120
433.00000 1.38479 0.32781 0.04951
433.10000 1.39756 0.11529 0.01283
433.20000 1.42794 0.00828 -0.03204
433.30000 1.41578 -0.17196 -0.02915
433.40000 1.41408 -0.16509 0.01396
433.50000 1.41947 -0.10550 -0.00036
433.60000 1.37697 0.15538 -0.07193
433.70000 1.44734 0.05038 0.05999
433.80000 1.43848 -0.08639 0.00201
433.90000 1.39675 -0.04907 -0.07126
434.00000 1.39236 0.07734 0.00771
434.10000 1.51408 0.09645 0.02135
434.20000 1.40896 0.08231 -0.03015
434.30000 1.35522 -0.11246 -0.02426
434.40000 1.44644 -0.14134 0.00353
434.50000 1.42335 -0.13318 -0.04081
434.60000 1.42747 -0.12388 0.00019
434.70000 1.41025 0.06981 -0.00361
434.80000 1.38429 0.30101 0.06128
434.90000 1.43169 0.25081 -0.03024
435.00000 1.39662 0.26959 -0.03938
435.10000 1.43021 0.35553 0.07245
435.20000 1.46612 0.30764 0.00663
435.30000 1.35556 0.10658 0.02219
435.40000 1.43929 -0.14211 -0.02019
435.50000 1.40197 -0.05748 0.04576
435.60000 1.37008 0.13180 -0.02097
435.70000 1.44776 0.18279 -0.00654
435.80000 1.40811 0.08704 0.02205
435.90000 1.39208 -0.14021 -0.01941
436.00000 1.40300 -0.01653 -0.00899
436.10000 1.40548 0.16244 0.04731
436.20000 1.39660 0.17674 -0.06871
436.30000 1.42247 0.12795 0.01283
436.40000 1.43025 0.07224 -0.00732
436.50000 1.46935 0.20889 -0.03340
436.60000 1.45923 0.21793 0.02824
436.70000 1.39303 -0.04767 0.00123
436.80000 1.46867 -0.13099 -0.03235
436.90000 1.44683 -0.17588 0.02345
437.00000 1.39831 -0.06772 0.01081
437.10000 1.37420 -0.10337 -0.04600
437.20000 1.38797 -0.17365 0.01539
437.30000 1.42469 -0.21082 0.02221
437.40000 1.50018 -0.01582 0.00451
437.50000 1.39486 0.19810 -0.03993
437.60000 1.37506 0.23773 0.00317
437.70000 1.45424 0.20897 0.00276
437.80000 1.39216 0.24814 -0.02448
437.90000 1.40859 0.25015 0.00658
438.00000 1.43342 0.17378 0.06490
438.10000 1.42204 0.35577 -0.05341
438.20000 1.41839 0.37957 -0.03807
438.30000 1.40042 0.20348 0.02406
438.40000 1.40653 -0.01054 0.00932
438.50000 1.40283 -0.19372 0.00125
438.60000 1.41271 0.04169 0.00204
438.70000 1.40207 0.04686 0.02145
438.80000 1.42753 0.16214 0.01474
438.90000 1.44884 0.28146 0.02121
439.00000 1.38769 0.21788 0.06959
439.10000 1.43458 0.07990 -0.05340
439.20000 1.43951 0.10738 -0.00003
439.30000 1.39633 0.19058 0.04399
439.40000 1.36099 0.16950 -0.01014
439.50000 1.41219 0.21474 -0.08558
439.60000 1.43861 0.17196 0.02925
439.70000 1.46932 0.04997 0.01702
439.80000 1.35086 -0.09264 0.01065
439.90000 1.36608 -0.08944 0.02520
440.00000 1.45284 0.07857 -0.00224
440.10000 1.42833 0.14651 -0.02181
440.20000 1.34962 0.00177 -0.00933
440.30000 1.41065 0.08803 0.00137
440.40000 1.45207 -0.00185 -0.00289
440.50000 1.41098 -0.12467 -0.00094
440.60000 1.36541 -0.20628 -0.03421
440.70000 1.40482 -0.24697 -0.06050
440.80000 1.43016 -0.07184 0.03420
440.90000 1.39253 -0.20675 -0.02184
441.00000 1.47183 -0.23484 0.02830
441.10000 1.36916 -0.22308 0.04638
441.20000 1.35098 -0.18217 0.00568
441.30000 1.44004 -0.14213 -0.03327
441.40000 1.42271 -0.16491 -0.01086
441.50000 1.46822 -0.09928 0.07136
441.60000 1.44445 -0.18588 -0.07142
441.70000 1.36594 -0.11064 -0.02285
441.80000 1.41623 0.05276 0.06675
441.90000 1.47124 0.05671 0.04299
442.00000 1.36930 0.09831 -0.04459
442.10000 1.46646 0.07593 0.00131
442.20000 1.33561 -0.05427 0.02813
442.30000 1.44590 -0.01593 0.00795
442.40000 1.48708 -0.12336 0.01474
442.50000 1.36428 -0.16584 -0.03325
442.60000 1.37682 -0.19064 -0.05548
442.70000 1.41013 -0.17649 0.03028
442.80000 1.47445 -0.23965 0.01731
442.90000 1.39120 -0.04298 -0.00669
443.00000 1.41970 0.07216 0.01443
443.10000 1.42260 0.06414 0.04426
443.20000 1.40600 -0.03415 -0.04121
443.30000 1.44338 -0.06571 -0.00376
443.40000 1.37430 -0.15086 0.00864
443.50000 1.40736 -0.19615 0.03437
443.60000 1.40305 -0.13250 -0.02299
443.70000 1.41997 -0.01122 0.05076
443.80000 1.36807 0.11925 0.00607
443.90000 1.43060 0.12134 -0.05405
444.00000 1.35463 0.11222 0.02473
444.10000 1.43858 0.06417 0.01309
444.20000 1.48205 -0.25149 0.02508
444.30000 1.38617 -0.28764 0.00626
444.40000 1.40690 0.01203 -0.01706
444.50000 1.41802 0.28224 -0.03607
444.60000 1.41133 0.27528 0.00541
444.70000 1.43322 0.04419 0.00331
444.80000 1.40572 0.16751 -0.03135
444.90000 1.42781 0.20172 0.02222
445.00000 1.48288 0.17531 0.03152
445.10000 1.35340 0.17597 -0.02743
445.20000 1.39300 0.17517 -0.00161
445.30000 1.45662 0.09310 -0.02125
445.40000 1.41675 -0.18558 0.01007
445.50000 1.44222 -0.29643 -0.03776
445.60000 1.40733 -0.21714 0.04014
445.70000 1.43605 -0.19895 0.00544
445.80000 1.39594 -0.18253 0.01727
445.90000 1.40075 0.18153 0.01959
446.00000 1.40900 0.02883 0.00408
446.10000 1.40310 -0.05161 -0.01375
446.20000 1.37098 0.00025 0.03928
446.30000 1.44734 -0.07421 -0.01106
446.40000 1.44426 -0.09613 -0.01667
446.50000 1.46498 -0.11645 0.04542
446.60000 1.42347 -0.15459 -0.02489
446.70000 1.40440 -0.02811 -0.05744
446.80000 1.41184 0.35753 0.04559
446.90000 1.38499 0.42244 -0.00773
447.00000 1.42795 0.17466 0.02097
447.10000 1.42130 0.18180 0.00910
447.20000 1.36061 0.02071 0.00701
447.30000 1.41991 -0.25768 -0.01609
447.40000 1.42804 -0.19129 0.00112
447.50000 1.37843 -0.07440 0.04418
447.60000 1.41752 -0.08271 -0.04816
447.70000 1.37605 -0.13755 -0.02717
447.80000 1.41359 -0.17265 0.01824
447.90000 1.42989 0.07785 -0.00232
448.00000 1.38830 0.29412 -0.01054
448.10000 1.45165 0.36395 -0.04477
448.20000 1.49508 0.20822 0.02586
448.30000 1.39813 0.13662 0.01413
448.40000 1.41562 0.04657 0.03549
448.50000 1.47602 0.00749 -0.04536
448.60000 1.45674 -0.01229 0.06646
448.70000 1.34942 0.08554 0.01026
448.80000 1.46878 0.02412 -0.05124
448.90000 1.41177 0.10713 -0.00303
449.00000 1.38303 0.10174 -0.00076
449.10000 1.36152 -0.02456 -0.07937
449.20000 1.41775 -0.14176 -0.01315
449.30000 1.44820 -0.08793 -0.00339
449.40000 1.45176 -0.12455 0.01740
449.50000 1.38000 -0.04834 -0.07331
449.60000 1.40456 -0.02442 -0.01099
449.70000 1.31977 0.08417 0.04178
449.80000 1.45443 0.15093 0.00687
449.90000 1.46018 0.18717 -0.03468
450.00000 1.38861 -0.22236 -0.02067
450.10000 1.40304 -0.40273 0.00345
450.20000 1.43152 -0.09246 0.03051
450.30000 1.38107 0.00165 -0.05566
450.40000 1.45336 0.19035 -0.07614
450.50000 1.43147 0.25347 0.04263
450.60000 1.43952 0.35925 0.02104
450.70000 1.37425 0.50671 -0.02174
450.80000 1.42453 0.39805 0.00555
450.90000 1.44411 0.23351 0.00474
451.00000 1.42337 0.17918 -0.00110
451.10000 1.43384 0.20113 0.01849
451.20000 1.41273 0.18578 -0.01887
451.30000 1.42821 0.12534 0.02429
451.40000 1.41968 0.06405 -0.02987
451.50000 1.46263 0.03462 0.01649
451.60000 1.43907 0.13502 -0.02099
451.70000 1.37756 0.07237 -0.04506
451.80000 1.41798 0.10863 0.09415
451.90000 1.43422 0.08284 -0.03449
452.00000 1.42007 -0.01301 -0.07126
452.10000 1.43580 -0.27435 0.00565
452.20000 1.38391 -0.29493 0.07118
452.30000 1.41760 -0.04422 0.03639
452.40000 1.45287 0.03701 -0.03050
452.50000 1.43152 -0.00620 0.00707
452.60000 1.40474 0.08496 -0.03858
452.70000 1.47989 0.05186 0.07563
452.80000 1.41709 0.10004 0.00815
452.90000 1.37441 0.16474 -0.00228
453.00000 1.42933 0.00819 0.00841
453.10000 1.44762 -0.08665 0.01232
453.20000 1.41079 -0.11481 0.02292
453.30000 1.38273 -0.16139 -0.00004
453.40000 1.41007 -0.09911 -0.03105
453.50000 1.45232 -0.03142 0.02399
453.60000 1.38703 -0.17293 0.01015
453.70000 1.44519 -0.09323 0.00634
453.80000 1.44017 -0.00202 0.07651
453.90000 1.35508 -0.06605 -0.05941
454.00000 1.45314 -0.08601 0.03817
454.10000 1.44381 -0.08696 -0.00365
454.20000 1.46613 -0.00033 0.00036
454.30000 1.40321 0.05252 -0.01459
454.40000 1.36279 0.18159 0.08688
454.50000 1.46602 0.12507 -0.00187
454.60000 1.43972 -0.12776 -0.07713
454.70000 1.39444 -0.28010 -0.02253
454.80000 1.41961 -0.20015 -0.00638
454.90000 1.42060 -0.11104 0.01723
455.00000 1.44408 0.02052 -0.06136
455.10000 1.37994 0.08692 -0.01337
455.20000 1.42707 -0.13787 0.00884
455.30000 1.40727 -0.21948 -0.01504
455.40000 1.45609 -0.22394 -0.02045
455.50000 1.38281 -0.05817 -0.00206
455.60000 1.39321 0.10283 0.01725
455.70000 1.42519 0.09608 -0.07922
455.80000 1.42951 -0.14196 -0.02606
455.90000 1.32819 -0.30610 0.04909
456.00000 1.47101 -0.18999 0.02294
456.10000 1.47622 -0.07815 0.00572
456.20000 1.46000 0.07225 0.01180
456.30000 1.39260 0.20231 0.00524
456.40000 1.44085 0.23975 0.04399
456.50000 1.38218 0.10326 -0.01726
456.60000 1.36793 -0.10642 0.04148
456.70000 1.47175 -0.10456 0.02918
456.80000 1.44700 -0.08901 0.02472
456.90000 1.39437 -0.01553 -0.02701
457.00000 1.31365 0.00296 0.02282
457.10000 1.47529 -0.15081 0.01542
457.20000 1.45577 -0.33318 -0.02350
457.30000 1.40651 -0.07437 -0.01733
457.40000 1.41396 0.14878 -0.03011
457.50000 1.41241 0.04792 0.02572
457.60000 1.45713 0.02615 0.00788
457.70000 1.41880 0.08070 -0.03812
457.80000 1.42485 -0.02464 0.01484
457.90000 1.40639 -0.07163 -0.02279
458.00000 1.40038 -0.09824 -0.00573
458.10000 1.41766 -0.12730 0.01325
458.20000 1.43314 0.02938 0.00481
458.30000 1.36534 0.26834 -0.00186
458.40000 1.39006 0.10566 0.00695
458.50000 1.41206 -0.08642 -0.02865
458.60000 1.45197 -0.22998 0.02727
458.70000 1.37529 -0.02262 0.01063
458.80000 1.42102 0.02885 -0.00474
458.90000 1.40423 0.20139 0.03771
459.00000 1.43470 0.16027 -0.04221
459.10000 1.41843 -0.20419 0.04709
459.20000 1.40787 -0.32391 0.00946
459.30000 1.39794 -0.01053 -0.04851
459.40000 1.36774 0.07533 0.04558
459.50000 1.36766 -0.17375 0.01412
459.60000 1.39754 -0.36391 -0.05961
459.70000 1.47630 -0.17761 0.00816
459.80000 1.39317 0.03794 0.02170
459.90000 1.36346 -0.03881 -0.02713
460.00000 1.33901 -0.01140 -0.01610
460.10000 1.42329 0.02146 -0.01471
460.20000 1.44992 -0.11954 -0.01591
460.30000 1.38054 0.07976 -0.05874
460.40000 1.44599 -0.00210 0.02574
460.50000 1.41082 -0.08760 -0.01966
460.60000 1.43090 0.01524 -0.00264
460.70000 1.41873 0.10105 0.09354
460.80000 1.38971 0.09884 -0.05437
460.90000 1.42495 0.12422 -0.04523
461.00000 1.43799 0.18917 0.00743
461.10000 1.37833 0.20421 0.01427
461.20000 1.45738 0.16281 0.01594
461.30000 1.45156 0.00584 -0.02054
461.40000 1.47330 -0.08578 -0.04614
461.50000 1.32706 -0.11389 0.05307
461.60000 1.46631 -0.31015 0.01762
461.70000 1.42120 -0.36234 -0.01114
461.80000 1.39529 -0.32529 -0.01473
461.90000 1.41970 -0.02592 0.03323
462.00000 1.41104 0.05965 -0.05694
462.10000 1.41292 0.01039 -0.02888
462.20000 1.42906 -0.12483 -0.02281
462.30000 1.36551 -0.09971 0.01151
462.40000 1.40669 -0.02439 -0.03575
462.50000 1.49579 -0.07965 0.03926
462.60000 1.40344 -0.10910 -0.01886
462.70000 1.36289 -0.05676 -0.05576
462.80000 1.42199 -0.04471 0.01761
462.90000 1.44262 -0.06479 0.01579
463.00000 1.39431 -0.04057 0.01370
463.10000 1.40149 -0.04156 -0.01796
463.20000 1.40734 -0.22775 -0.04685
463.30000 1.40532 -0.38825 0.00362
463.40000 1.42876 -0.31857 -0.07573
463.50000 1.44074 -0.10498 -0.03673
463.60000 1.41308 0.00404 0.03184
463.70000 1.39591 0.04012 -0.00034
463.80000 1.45563 -0.04834 0.03463
463.90000 1.45995 0.10282 -0.04713
464.00000 1.44131 0.16350 -0.01906
464.10000 1.39997 0.26690 -0.01702
464.20000 1.42525 0.15432 0.02383
464.30000 1.37543 0.11019 -0.04108
464.40000 1.42107 0.13834 -0.06006
464.50000 1.34655 0.11037 0.01315
464.60000 1.39658 0.13272 0.01740
464.70000 1.43256 -0.04432 -0.01374
464.80000 1.40269 0.03163 -0.02312
464.90000 1.38895 -0.05654 0.07901
465.00000 1.40373 -0.02706 0.02117
465.10000 1.44937 0.01529 -0.05903
465.20000 1.40432 0.05362 -0.02440
465.30000 1.43688 0.04894 -0.02873
465.40000 1.42807 0.09158 0.09856
465.50000 1.41080 0.16761 -0.01983
465.60000 1.39747 0.12426 -0.05001
465.70000 1.47583 0.14286 0.02065
465.80000 1.37301 -0.00023 0.01906
465.90000 1.40905 0.01394 -0.03150
466.00000 1.43056 0.15133 -0.00678
466.10000 1.39686 0.18613 -0.04308
466.20000 1.43888 0.10048 -0.03268
466.30000 1.44857 0.01609 0.09088
466.40000 1.37948 -0.05871 0.01714
466.50000 1.44467 -0.08580 -0.05498
466.60000 1.36447 -0.03130 -0.02192
466.70000 1.39832 -0.08096 0.00447
466.80000 1.39660 -0.03207 0.00645
466.90000 1.41230 0.06651 0.01456
467.00000 1.40611 0.20085 0.02976
467.10000 1.40140 0.03425 -0.06569
467.20000 1.44074 -0.08748 0.02833
467.30000 1.45162 -0.07760 0.04884
467.40000 1.43026 0.16126 -0.01166
467.50000 1.41937 0.20806 -0.05203
467.60000 1.39732 -0.00875 -0.01189
467.70000 1.47546 -0.06156 -0.03281
467.80000 1.40850 0.02608 -0.02131
467.90000 1.39366 -0.05469 0.00744
468.00000 1.38880 -0.05112 0.04904
468.10000 1.40935 -0.12075 0.09240
468.20000 1.39706 -0.10041 -0.03337
468.30000 1.45108 -0.02600 -0.00605
468.40000 1.40157 0.12679 0.03404
468.50000 1.41121 0.26079 -0.03603
468.60000 1.42112 0.17279 -0.05526
468.70000 1.38041 -0.05988 0.02531
468.80000 1.44468 -0.14043 0.03118
468.90000 1.35441 -0.08751 -0.02850
469.00000 1.45499 -0.08932 0.02435
469.10000 1.45982 -0.11469 -0.04226
469.20000 1.35582 -0.17864 0.02121
469.30000 1.42895 0.01122 0.00227
469.40000 1.38009 0.04370 -0.01130
469.50000 1.36475 -0.22089 -0.00785
469.60000 1.41781 -0.06806 0.04025
469.70000 1.41107 0.20947 0.05822
469.80000 1.34133 0.34136 -0.06860
469.90000 1.44138 0.30195 0.06168
470.00000 1.40212 0.09511 -0.00439
470.10000 1.36671 -0.02977 -0.04005
470.20000 1.47357 -0.21620 -0.04211
470.30000 1.39867 -0.05137 0.01284
470.40000 1.39265 0.08359 -0.01569
470.50000 1.43147 0.09424 0.02587
470.60000 1.37627 -0.04868 0.06346
470.70000 1.41972 0.05802 -0.08511
470.80000 1.47457 0.21745 -0.02736
470.90000 1.37751 0.10571 0.09548
471.00000 1.36481 0.10435 -0.02589
471.10000 1.43023 0.15584 -0.00060
471.20000 1.46611 0.26759 -0.01452
471.30000 1.35288 0.26652 0.00511
471.40000 1.46174 0.28790 0.02662
471.50000 1.42759 0.15905 0.02278
471.60000 1.42313 -0.10975 0.02158
471.70000 1.46634 -0.20543 0.00192
471.80000 1.35915 0.00944 -0.03099
471.90000 1.38043 0.00818 0.06916
472.00000 1.46981 -0.11307 -0.01676
472.10000 1.37136 -0.10022 -0.02818
472.20000 1.38634 0.09617 0.02263
472.30000 1.46749 0.11957 -0.01346
472.40000 1.41375 0.08061 -0.02004
472.50000 1.44002 -0.02793 0.01152
472.60000 1.44031 -0.14466 0.02244
472.70000 1.45095 -0.06278 -0.04585
472.80000 1.36999 0.05843 0.03320
472.90000 1.38169 0.04662 0.04621
473.00000 1.46689 -0.01740 -0.03232
473.10000 1.39614 -0.05987 -0.00617
473.20000 1.36314 -0.10371 -0.00042
473.30000 1.44933 -0.06505 0.05106
473.40000 1.44781 0.02293 0.00092
473.50000 1.37451 0.05635 0.00971
473.60000 1.48452 0.00458 0.00472
473.70000 1.47089 -0.18412 -0.01848
473.80000 1.36634 0.01657 -0.01279
473.90000 1.40477 0.09439 0.03917
474.00000 1.44259 0.00034 -0.02552
474.10000 1.43643 -0.08862 0.02377
474.20000 1.38721 -0.11098 -0.00289
474.30000 1.39434 0.04617 -0.02244
474.40000 1.40167 -0.05004 0.00346
474.50000 1.42671 -0.26090 0.04070
474.60000 1.43811 -0.24134 -0.00117
474.70000 1.42545 -0.00263 -0.01208
474.80000 1.42045 -0.11815 -0.02800
474.90000 1.39669 0.00023 -0.05509
475.00000 1.39905 -0.06842 0.07267
475.10000 1.41835 -0.04271 0.03165
475.20000 1.45744 -0.12954 -0.05811
475.30000 1.37134 -0.19767 0.00246
475.40000 1.40842 -0.22579 0.01082
475.50000 1.42682 0.07484 0.02854
475.60000 1.38196 0.09608 -0.00996
475.70000 1.46510 0.17607 -0.05357
475.80000 1.40659 0.20594 0.05303
475.90000 1.39291 0.26931 -0.00373
476.00000 1.39980 0.15030 0.00038
476.10000 1.51725 0.13861 0.04646
476.20000 1.36368 0.16612 -0.02823
476.30000 1.35783 -0.01143 -0.00119
476.40000 1.44354 -0.21152 0.02196
476.50000 1.41087 0.04172 -0.02855
476.60000 1.42397 0.17992 0.00667
476.70000 1.37756 0.21893 -0.03662
476.80000 1.40359 0.06261 0.02490
476.90000 1.38811 0.00287 0.00890
477.00000 1.45785 0.04182 0.01867
477.10000 1.40171 -0.02014 0.04082
477.20000 1.43331 -0.16726 0.00088
477.30000 1.41112 -0.23315 0.01368
477.40000 1.43393 -0.23417 -0.06054
477.50000 1.34967 0.03797 0.01437
477.60000 1.45114 0.05812 0.02398
477.70000 1.40956 0.00866 -0.05875
477.80000 1.42751 0.09271 0.06961
477.90000 1.39174 0.04532 0.01088
478.00000 1.35451 -0.00117 -0.03473
478.10000 1.39662 -0.10478 -0.02908
478.20000 1.50014 -0.04636 0.03881
478.30000 1.40478 0.25442 -0.03377
478.40000 1.31637 0.18647 0.03898
478.50000 1.43931 0.02678 0.03823
478.60000 1.40881 -0.08107 -0.00536
478.70000 1.43602 -0.20323 0.00730
478.80000 1.44709 -0.22823 -0.04514
478.90000 1.44024 0.04513 -0.07916
479.00000 1.42278 0.32107 -0.01439
479.10000 1.35979 0.31817 0.04499
479.20000 1.41561 -0.02950 0.02572
479.30000 1.42511 -0.14741 -0.06537
479.40000 1.46942 -0.14612 0.08276
479.50000 1.40591 -0.04490 -0.00528
479.60000 1.43932 -0.00965 -0.04132
479.70000 1.37691 -0.10500 0.12519
479.80000 1.36486 -0.07034 0.04502
479.90000 1.40451 -0.00307 -0.07638
480.00000 1.40587 -0.04397 -0.07874
480.10000 1.40726 -0.10717 0.05733
480.20000 1.44475 -0.12020 0.05426
480.30000 1.44206 -0.15412 -0.06894
480.40000 1.40320 -0.02495 0.03825
480.50000 1.43032 0.13976 -0.00788
480.60000 1.49438 0.11809 0.02544
480.70000 1.40756 0.12645 -0.05365
480.80000 1.45703 0.14310 -0.04712
480.90000 1.34712 0.06118 0.03038
481.00000 1.45215 0.09477 -0.02296
481.10000 1.40946 0.00858 0.07860
481.20000 1.43730 -0.08159 -0.03352
481.30000 1.44108 -0.05714 0.05455
481.40000 1.36226 -0.01280 0.00434
481.50000 1.38727 -0.01518 0.04014
481.60000 1.39504 -0.12144 -0.03177
481.70000 1.47148 -0.02564 0.01154
481.80000 1.42487 -0.02832 0.02160
481.90000 1.34634 0.00407 0.04749
482.00000 1.43333 -0.10195 -0.00533
482.10000 1.50846 -0.04521 -0.00106
482.20000 1.35034 0.20833 -0.05256
482.30000 1.36805 0.18282 -0.00621
482.40000 1.51695 0.02904 0.00532
482.50000 1.39609 0.04763 0.00916
482.60000 1.38119 0.02452 0.03066
482.70000 1.38933 -0.25028 -0.04108
482.80000 1.46405 -0.24515 -0.00848
482.90000 1.40135 -0.21729 0.08440
483.00000 1.47104 -0.01610 0.01244
483.10000 1.36901 0.00866 -0.01821
483.20000 1.43865 0.15477 -0.04577
483.30000 1.38953 0.06449 -0.01526
483.40000 1.44691 -0.15593 -0.01017
483.50000 1.38334 -0.26513 -0.00070
483.60000 1.36200 -0.17346 0.00775
483.70000 1.49788 -0.02173 -0.03267
483.80000 1.39175 0.08543 0.01104
483.90000 1.40216 -0.04025 -0.01447
484.00000 1.43512 -0.06707 0.03402
484.10000 1.40661 0.03854 -0.02027
484.20000 1.40857 0.12941 -0.02777
484.30000 1.41382 0.26498 0.05441
484.40000 1.38978 0.27878 -0.01962
484.50000 1.33474 0.10574 -0.03560
484.60000 1.43065 -0.10960 0.04856
484.70000 1.45133 -0.04661 -0.05172
484.80000 1.41979 0.06728 0.02870
484.90000 1.43859 0.05934 -0.00434
485.00000 1.39034 0.08450 0.01915
485.10000 1.38817 0.33738 0.00285
485.20000 1.42799 0.13364 0.00174
485.30000 1.46693 0.05626 0.00985
485.40000 1.42137 0.09907 0.02472
485.50000 1.38976 0.08066 0.00671
485.60000 1.41853 -0.01394 -0.03042
485.70000 1.46404 -0.02037 -0.02629
485.80000 1.40121 0.15418 0.03641
485.90000 1.48681 0.07511 -0.09759
486.00000 1.42260 0.04037 -0.00205
486.10000 1.37396 0.10863 0.07572
486.20000 1.40729 0.03571 0.00972
486.30000 1.47057 -0.00929 -0.09005
486.40000 1.43189 0.21193 0.02137
486.50000 1.37252 0.19393 0.03851
486.60000 1.34291 -0.09457 -0.03736
486.70000 1.44298 -0.33205 -0.01290
486.80000 1.46835 -0.33184 0.04443
486.90000 1.42068 0.03373 -0.01691
487.00000 1.41154 0.17355 0.00808
487.10000 1.41169 0.32293 -0.03843
487.20000 1.40774 0.25204 -0.05373
487.30000 1.45796 -0.05192 -0.01736
487.40000 1.41781 -0.10862 0.02321
487.50000 1.38410 -0.17125 0.01561
487.60000 1.46855 -0.01718 -0.01975
487.70000 1.40173 0.17284 0.10240
487.80000 1.32803 0.09406 -0.02572
487.90000 1.48634 -0.07737 -0.04785
488.00000 1.44244 -0.01274 0.03506
488.10000 1.35481 -0.19880 0.04602
488.20000 1.45716 -0.22391 0.01480
488.30000 1.42952 -0.19260 -0.06403
488.40000 1.39875 -0.03758 0.02566
488.50000 1.43299 0.30181 0.04131
488.60000 1.40176 0.33237 -0.02067
488.70000 1.38557 0.20547 -0.04053
488.80000 1.43775 0.24655 0.01343
488.90000 1.44627 0.18845 -0.03567
489.00000 1.50831 0.06128 -0.05799
489.10000 1.39026 -0.03899 0.01387
489.20000 1.44863 -0.03524 0.03663
489.30000 1.43180 0.15666 -0.13723
489.40000 1.42580 0.34504 -0.01527
489.50000 1.36402 0.23584 0.05829
489.60000 1.45458 0.06009 0.06807
489.70000 1.43079 -0.13786 0.00770
489.80000 1.38346 -0.42907 0.00260
489.90000 1.45538 -0.20100 0.00315
490.00000 1.42828 0.07373 0.01338
490.10000 1.37750 0.07430 -0.01728
490.20000 1.39900 -0.12467 0.03380
490.30000 1.43076 -0.26003 0.01119
490.40000 1.45398 -0.26461 -0.00488
490.50000 1.37239 -0.12602 0.01587
490.60000 1.39047 -0.08775 0.00289
490.70000 1.39313 -0.13407 -0.02295
490.80000 1.35406 -0.10080 -0.04996
490.90000 1.47087 0.06885 0.01113
491.00000 1.44122 0.10797 0.11376
491.10000 1.36214 -0.01666 -0.01176
491.20000 1.40090 -0.18044 -0.01512
491.30000 1.46964 -0.38947 0.00695
491.40000 1.37796 -0.20502 -0.00033
491.50000 1.40555 -0.02798 0.04350
491.60000 1.44836 0.13407 -0.01566
491.70000 1.37886 0.01328 0.04113
491.80000 1.40371 -0.06610 0.00691
491.90000 1.37463 -0.24240 -0.00914
492.00000 1.38963 -0.35917 0.08495
492.10000 1.47054 -0.13121 -0.00024
492.20000 1.39280 0.14028 -0.00931
492.30000 1.41237 -0.02439 -0.02721
492.40000 1.38375 -0.35939 -0.00895
492.50000 1.46598 -0.23213 0.00836
492.60000 1.48201 -0.27738 -0.06075
492.70000 1.40905 -0.32889 -0.00212
492.80000 1.42181 -0.02854 0.07798
492.90000 1.43423 0.00738 -0.08065
493.00000 1.41342 0.18619 -0.02593
493.10000 1.35700 0.34027 0.05329
493.20000 1.40619 0.31311 -0.03792
493.30000 1.36294 -0.02946 0.00913
493.40000 1.39695 -0.32804 -0.01972
493.50000 1.43162 -0.28810 -0.03968
493.60000 1.40066 -0.26771 0.00335
493.70000 1.43505 -0.29045 0.03423
493.80000 1.39005 -0.30362 0.02497
493.90000 1.47280 -0.27285 0.01351
494.00000 1.43739 -0.15852 -0.00846
494.10000 1.39697 0.00585 0.07422
494.20000 1.42834 -0.15496 -0.00851
494.30000 1.45418 -0.25828 -0.01439
494.40000 1.39009 -0.23969 0.02588
494.50000 1.46084 -0.10846 -0.02380
494.60000 1.46163 -0.03665 0.03190
494.70000 1.36460 -0.23367 -0.03798
494.80000 1.41016 -0.31162 -0.01251
494.90000 1.47803 -0.27365 0.03526
495.00000 1.40257 -0.19253 0.01989
495.10000 1.45457 -0.09205 -0.02940
495.20000 1.40368 0.14004 -0.02143
495.30000 1.40632 0.10549 0.00906
495.40000 1.42887 0.09725 -0.05063
495.50000 1.47435 0.17353 -0.01020
495.60000 1.31780 0.17964 0.02529
495.70000 1.39763 -0.01956 0.01204
495.80000 1.46158 0.02456 0.01784
495.90000 1.38041 0.18113 -0.04373
496.00000 1.45412 0.12543 0.01053
496.10000 1.41779 0.07663 0.02427
496.20000 1.39136 -0.13560 0.03130
496.30000 1.42694 -0.16215 -0.09668
496.40000 1.36908 -0.13281 0.04415
496.50000 1.36024 -0.12545 0.03561
496.60000 1.41923 -0.03676 -0.12565
496.70000 1.44329 0.05555 0.04455
496.80000 1.41002 0.15582 0.01885
496.90000 1.37167 0.06314 -0.04435
497.00000 1.44450 0.00931 0.03436
497.10000 1.40880 -0.05647 0.09104
497.20000 1.40314 0.00020 0.00826
497.30000 1.48216 -0.01473 0.00309
497.40000 1.36975 -0.09511 -0.05533
497.50000 1.44015 0.01396 0.02165
497.60000 1.40150 -0.09777 0.02597
497.70000 1.39442 -0.11969 -0.05831
497.80000 1.42107 0.02179 0.01147
497.90000 1.40915 0.20777 0.00505
498.00000 1.46682 0.11151 0.01319
498.10000 1.39493 0.05918 0.03876
498.20000 1.43800 -0.18346 -0.00276
498.30000 1.44474 -0.14475 -0.01824
498.40000 1.40180 -0.11330 0.02849
498.50000 1.39839 -0.19409 0.01238
498.60000 1.45282 -0.16503 0.03750
498.70000 1.39105 -0.13226 0.01460
498.80000 1.39969 -0.01719 0.03860
498.90000 1.36077 -0.32509 0.01504
499.00000 1.47087 -0.29799 0.02478
499.10000 1.38872 -0.02058 0.00072
499.20000 1.44324 0.18878 -0.04038
499.30000 1.39528 0.14987 0.05953
499.40000 1.36536 0.04586 0.02969
499.50000 1.39929 0.10046 -0.01018
499.60000 1.48943 0.12014 0.00262
499.70000 1.36677 -0.09520 0.07658
499.80000 1.43494 -0.25241 0.00604
499.90000 1.40862 -0.32463 0.00774
500.00000 1.43540 -0.12665 0.04061
