# t[ps]  x[nm]  y[nm]  z[nm]
0.00000 0.07701 0.01017 -0.00989
0.10000 1.37844 0.05678 0.03619
0.20000 1.94528 0.12048 -0.02974
0.30000 1.41364 0.05074 -0.03053
0.40000 1.29550 -0.04812 0.00607
0.50000 1.59394 -0.09347 -0.02342
0.60000 1.56884 -0.02339 0.03273
0.70000 1.49880 0.13829 -0.00246
0.80000 1.46877 0.17852 -0.03403
0.90000 1.47079 0.12868 0.02625
1.00000 1.53458 0.03769 0.02246
1.10000 1.51501 -0.03156 -0.02725
1.20000 1.55884 0.01620 -0.01735
1.30000 1.47735 0.14594 0.04020
1.40000 1.53131 0.17685 -0.06383
1.50000 1.53400 0.11903 0.01055
1.60000 1.49124 0.06553 0.01623
1.70000 1.55569 -0.05941 0.00314
1.80000 1.53550 -0.01693 0.00416
1.90000 1.47343 -0.03879 0.06202
2.00000 1.49951 -0.05819 -0.00727
2.10000 1.55098 -0.01645 -0.01409
2.20000 1.46905 -0.02529 0.02186
2.30000 1.52966 -0.02311 0.01393
2.40000 1.53118 -0.03627 0.03585
2.50000 1.46789 -0.10518 0.00778
2.60000 1.56720 -0.03476 -0.02204
2.70000 1.55579 0.06883 0.00066
2.80000 1.42906 -0.01592 -0.02440
2.90000 1.46757 -0.11853 0.01214
3.00000 1.60172 -0.00149 -0.02379
3.10000 1.45225 -0.00427 -0.03694
3.20000 1.49922 -0.07547 0.03223
3.30000 1.51569 -0.09137 0.01859
3.40000 1.52313 -0.20205 -0.04652
3.50000 1.48054 -0.19416 -0.00999
3.60000 1.55717 0.03038 0.03636
3.70000 1.52368 0.24521 0.04861
3.80000 1.52301 0.15736 -0.02837
3.90000 1.49373 0.03644 0.05201
4.00000 1.47303 0.08591 -0.02603
4.10000 1.51788 0.14036 0.03224
4.20000 1.49737 -0.13414 -0.00201
4.30000 1.50188 -0.17204 -0.03780
4.40000 1.45982 0.08862 -0.00653
4.50000 1.48781 0.31276 0.07614
4.60000 1.54382 0.15555 0.00244
4.70000 1.49969 -0.14501 -0.09208
4.80000 1.55190 -0.33215 -0.00279
4.90000 1.53135 -0.06315 0.01974
5.00000 1.53161 0.17857 -0.00935
5.10000 1.49542 0.34879 -0.04524
5.20000 1.55491 0.48724 -0.05338
5.30000 1.50814 0.40194 0.09667
5.40000 1.51285 0.13273 -0.00852
5.50000 1.51992 -0.04753 0.02519
5.60000 1.52022 -0.01010 0.00241
5.70000 1.52663 0.10628 -0.01992
5.80000 1.48545 0.10611 -0.01306
5.90000 1.47421 0.12169 -0.03827
6.00000 1.45372 0.24441 0.04380
6.10000 1.47627 0.27915 -0.00922
6.20000 1.54413 0.13529 -0.04886
6.30000 1.50335 0.03901 -0.02445
6.40000 1.48170 -0.03353 0.02038
6.50000 1.52011 0.07744 -0.01039
6.60000 1.47913 0.27885 -0.01270
6.70000 1.45230 0.21944 0.01124
6.80000 1.49937 0.03237 0.05588
6.90000 1.51619 -0.02507 -0.03075
7.00000 1.51302 -0.11033 -0.05066
7.10000 1.47419 0.04182 0.04439
7.20000 1.49877 0.05941 0.00965
7.30000 1.47600 -0.07349 -0.01379
7.40000 1.52766 -0.07284 0.01223
7.50000 1.50047 -0.00007 -0.01268
7.60000 1.47104 -0.02947 -0.03330
7.70000 1.52408 -0.03919 -0.01739
7.80000 1.50362 -0.02165 0.07447
7.90000 1.47455 0.04698 -0.02019
8.00000 1.56299 0.14961 0.03539
8.10000 1.52404 0.03559 0.01062
8.20000 1.44141 -0.07038 -0.04516
8.30000 1.48537 0.05560 0.01254
8.40000 1.52186 0.31071 0.02653
8.50000 1.48762 0.38793 0.01067
8.60000 1.53127 0.19654 -0.00135
8.70000 1.56494 -0.02798 0.08826
8.80000 1.48448 -0.10519 -0.00689
8.90000 1.55073 -0.06728 -0.06496
9.00000 1.46891 -0.03763 0.02288
9.10000 1.46094 -0.08420 0.03359
9.20000 1.59024 -0.23265 -0.02555
9.30000 1.54945 -0.15807 -0.02294
9.40000 1.51445 0.04189 -0.01052
9.50000 1.54057 0.09532 0.01529
9.60000 1.50872 -0.09305 0.01894
9.70000 1.53097 -0.22973 0.00213
9.80000 1.51642 -0.02526 -0.02008
9.90000 1.51985 -0.06051 0.00173
10.00000 1.54118 -0.04089 -0.02451
10.10000 1.52849 -0.12165 -0.03844
10.20000 1.56078 0.10207 -0.00919
10.30000 1.47561 0.22858 0.02887
10.40000 1.52583 0.08845 -0.03142
10.50000 1.48351 0.01877 0.01977
10.60000 1.51990 0.10637 0.01685
10.70000 1.54039 0.16327 0.08641
10.80000 1.48295 0.15848 0.02923
10.90000 1.46721 0.11436 -0.04833
11.00000 1.47416 -0.00179 -0.03363
11.10000 1.51176 -0.05705 0.08226
11.20000 1.53687 0.00487 -0.07588
11.30000 1.46431 -0.12490 0.05892
11.40000 1.52533 -0.16844 -0.04889
11.50000 1.50118 -0.18837 0.02188
11.60000 1.51871 0.08176 -0.02769
11.70000 1.48576 0.06341 -0.03358
11.80000 1.57247 0.00613 0.03330
11.90000 1.53166 0.15713 -0.03443
12.00000 1.49087 0.22351 -0.02816
12.10000 1.55459 0.19263 -0.00119
12.20000 1.51551 0.00868 0.00183
12.30000 1.49908 -0.07594 0.00941
12.40000 1.57635 -0.06231 0.04748
12.50000 1.49773 0.03904 -0.02169
12.60000 1.54049 -0.01644 0.02672
12.70000 1.51943 0.13109 0.00443
12.80000 1.49938 0.13883 -0.00319
12.90000 1.47571 0.08373 -0.07859
13.00000 1.52074 -0.13248 0.02062
13.10000 1.46246 -0.10401 0.02372
13.20000 1.50850 -0.13861 0.06528
13.30000 1.46485 -0.16522 -0.01174
13.40000 1.56133 -0.07999 -0.05396
13.50000 1.53706 -0.00988 0.05546
13.60000 1.45788 0.12504 -0.00438
13.70000 1.47485 0.16394 0.00646
13.80000 1.49855 0.13235 0.01246
13.90000 1.53323 0.04920 -0.02259
14.00000 1.49199 0.08267 -0.04291
14.10000 1.44384 0.25458 0.00748
14.20000 1.55171 0.33532 -0.00552
14.30000 1.56806 0.14030 0.04686
14.40000 1.50987 0.00565 -0.03899
14.50000 1.47245 0.18574 -0.04278
14.60000 1.50342 0.35105 0.01447
14.70000 1.49582 0.29939 -0.01317
14.80000 1.53137 0.06299 0.00042
14.90000 1.52496 -0.22427 0.02800
15.00000 1.53630 -0.34952 0.02574
15.10000 1.44192 -0.22806 -0.04445
15.20000 1.53320 -0.20086 -0.01514
15.30000 1.52808 -0.13906 0.01866
15.40000 1.47454 -0.11102 0.02979
15.50000 1.57414 -0.05971 -0.01161
15.60000 1.53028 0.02278 -0.03780
15.70000 1.50710 0.18895 -0.10079
15.80000 1.46558 0.28115 0.07043
15.90000 1.59486 0.17631 0.01002
16.00000 1.46480 0.01289 0.03206
16.10000 1.52895 -0.03309 -0.00221
16.20000 1.49899 -0.02373 0.00832
16.30000 1.51995 -0.11668 0.01911
16.40000 1.51724 -0.11974 -0.01338
16.50000 1.55194 0.04926 -0.02776
16.60000 1.51478 0.06891 -0.00799
16.70000 1.49778 0.00056 -0.02784
16.80000 1.48407 -0.19736 -0.01377
16.90000 1.49058 -0.10663 0.04328
17.00000 1.55220 0.12636 0.02436
17.10000 1.47168 0.23674 -0.01090
17.20000 1.50812 0.00671 0.01035
17.30000 1.56789 -0.31549 -0.02623
17.40000 1.50190 -0.42738 -0.01381
17.50000 1.54591 -0.19755 -0.05394
17.60000 1.48722 -0.08088 -0.02708
17.70000 1.53186 0.03766 0.02860
17.80000 1.50892 0.29613 0.02181
17.90000 1.49066 0.40217 0.03773
18.00000 1.52248 0.39049 -0.01197
18.10000 1.48363 0.37088 -0.00969
18.20000 1.54778 0.12045 0.04145
18.30000 1.52435 -0.20516 -0.02090
18.40000 1.46073 -0.29896 0.00422
18.50000 1.51039 -0.31832 -0.02677
18.60000 1.50964 -0.20893 0.03426
18.70000 1.49733 -0.05208 -0.01187
18.80000 1.49350 0.19454 -0.00316
18.90000 1.53195 0.08888 0.00286
19.00000 1.52535 -0.08687 -0.00988
19.10000 1.46038 -0.04085 0.00472
19.20000 1.51049 -0.11021 0.04380
19.30000 1.55748 -0.26513 -0.04175
19.40000 1.47619 -0.19136 -0.00857
19.50000 1.50593 -0.03012 0.02298
19.60000 1.51378 0.15878 -0.01370
19.70000 1.49335 0.05925 -0.00558
19.80000 1.51527 0.05796 -0.02624
19.90000 1.53932 0.06790 -0.00332
20.00000 1.48682 0.11627 -0.01751
20.10000 1.54828 0.04308 0.07837
20.20000 1.49007 0.05144 -0.07734
20.30000 1.38889 0.17324 -0.02591
20.40000 1.52806 0.20281 0.04821
20.50000 1.58730 0.15380 -0.02748
20.60000 1.52338 0.08982 0.03499
20.70000 1.52346 0.25846 -0.03313
20.80000 1.49014 0.50544 -0.00659
20.90000 1.51668 0.39847 0.02598
21.00000 1.55129 0.01917 -0.05695
21.10000 1.47480 -0.21074 -0.00449
21.20000 1.45897 -0.13543 0.04903
21.30000 1.56982 0.13517 -0.01815
21.40000 1.52333 0.26136 0.01700
21.50000 1.49516 0.30585 0.01049
21.60000 1.52549 0.23288 -0.02224
21.70000 1.53803 0.23118 -0.04554
21.80000 1.53012 0.06021 -0.01430
21.90000 1.47439 -0.03291 -0.04169
22.00000 1.50529 0.02382 -0.02647
22.10000 1.56990 0.18967 0.05707
22.20000 1.50962 0.09612 0.02119
22.30000 1.46988 0.12045 -0.06788
22.40000 1.53139 0.14194 0.02500
22.50000 1.52888 0.18884 0.04771
22.60000 1.45710 0.38827 0.01108
22.70000 1.53563 0.47011 0.01084
22.80000 1.53248 0.14014 -0.02696
22.90000 1.56084 -0.17707 0.02150
23.00000 1.47932 -0.27732 -0.02933
23.10000 1.45179 -0.24332 -0.04103
23.20000 1.52014 -0.20486 0.01136
23.30000 1.53942 -0.14794 0.02785
23.40000 1.56010 -0.16535 0.05028
23.50000 1.44463 -0.09934 -0.05088
23.60000 1.49919 -0.24488 -0.06055
23.70000 1.46675 -0.18296 0.02779
23.80000 1.53824 -0.14721 0.01825
23.90000 1.52861 0.02221 0.01045
24.00000 1.49220 0.22873 -0.03566
24.10000 1.52154 0.14131 -0.04860
24.20000 1.51878 -0.25660 0.02801
24.30000 1.50611 -0.55219 0.00922
24.40000 1.48664 -0.46948 -0.02284
24.50000 1.49921 -0.09018 -0.04395
24.60000 1.58270 0.01530 -0.00762
24.70000 1.50624 -0.07877 0.02958
24.80000 1.55147 -0.30504 0.00107
24.90000 1.47936 -0.02513 0.00014
25.00000 1.51925 0.29682 -0.04282
25.10000 1.56886 0.43095 0.00951
25.20000 1.48749 0.22733 0.04068
25.30000 1.47858 0.05022 0.01550
25.40000 1.49670 0.07587 -0.04354
25.50000 1.50844 0.20842 0.01881
25.60000 1.53258 0.22036 0.04954
25.70000 1.47244 -0.02410 0.00101
25.80000 1.48931 -0.04347 0.01837
25.90000 1.50950 0.06844 -0.04005
26.00000 1.57475 0.28836 -0.01272
26.10000 1.46534 0.28937 0.12608
26.20000 1.48684 0.20583 -0.03063
26.30000 1.56088 0.00821 -0.04555
26.40000 1.55686 0.13060 0.04784
26.50000 1.46745 0.22980 -0.07580
26.60000 1.48076 0.08067 0.08070
26.70000 1.53331 0.08005 0.01721
26.80000 1.55030 0.23112 -0.08281
26.90000 1.45979 0.31062 0.03170
27.00000 1.47546 0.22366 0.02468
27.10000 1.53519 0.07109 -0.00068
27.20000 1.51765 0.05759 -0.04260
27.30000 1.45489 0.05976 0.04224
27.40000 1.49853 -0.10036 0.01846
27.50000 1.55120 -0.11330 -0.01437
27.60000 1.48532 -0.11171 -0.00090
27.70000 1.50517 0.07895 -0.05557
27.80000 1.45430 0.24210 0.07940
27.90000 1.53690 0.06968 0.02445
28.00000 1.56238 -0.09803 -0.09076
28.10000 1.43415 0.04543 -0.02052
28.20000 1.48346 0.03616 0.02411
28.30000 1.51073 -0.15206 -0.04335
28.40000 1.58404 -0.04787 -0.01352
28.50000 1.45944 -0.02847 0.05411
28.60000 1.47104 -0.09512 -0.02260
28.70000 1.50685 -0.08334 -0.04580
28.80000 1.49676 -0.09301 0.08821
28.90000 1.47740 0.01953 0.00354
29.00000 1.62862 0.26740 -0.05657
29.10000 1.51559 0.31086 0.04595
29.20000 1.46061 0.12389 -0.03539
29.30000 1.54801 -0.08538 0.03092
29.40000 1.51725 0.00465 0.09414
29.50000 1.43839 -0.03764 0.01192
29.60000 1.53814 -0.20462 -0.08434
29.70000 1.52522 -0.18503 0.01726
29.80000 1.48627 0.07690 0.03362
29.90000 1.55761 0.21527 -0.01984
30.00000 1.55120 0.20016 -0.00347
30.10000 1.47684 0.19517 0.05764
30.20000 1.50088 0.17004 0.01478
30.30000 1.54163 0.09452 -0.07216
30.40000 1.50557 0.00827 0.03558
30.50000 1.52327 0.09221 0.02402
30.60000 1.49725 0.03516 -0.02398
30.70000 1.45247 -0.10666 0.02633
30.80000 1.50409 -0.03181 -0.02709
30.90000 1.44766 0.03353 0.02803
31.00000 1.55366 0.12415 0.00231
31.10000 1.47923 0.03603 -0.04362
31.20000 1.48452 -0.13422 0.00590
31.30000 1.50341 -0.22433 0.02455
31.40000 1.56615 -0.10996 0.02336
31.50000 1.50201 -0.02021 -0.02828
31.60000 1.48333 -0.04053 -0.02035
31.70000 1.52909 0.04144 -0.05160
31.80000 1.49183 0.15806 -0.00452
31.90000 1.51701 0.09298 0.08241
32.00000 1.54429 -0.07314 -0.02210
32.10000 1.53439 -0.12183 -0.02159
32.20000 1.49978 -0.02402 0.03392
32.30000 1.43844 -0.15655 0.01560
32.40000 1.47957 -0.07715 0.00957
32.50000 1.55463 0.02549 0.03456
32.60000 1.49784 -0.11618 -0.06573
32.70000 1.55210 -0.36770 -0.01020
32.80000 1.51339 -0.43567 -0.03585
32.90000 1.48270 -0.11840 0.06422
33.00000 1.48711 0.11473 0.02157
33.10000 1.60887 0.01055 0.00813
33.20000 1.47557 0.12408 -0.03767
33.30000 1.48544 0.12616 -0.00354
33.40000 1.46827 0.20435 0.03095
33.50000 1.53553 0.18501 -0.01708
33.60000 1.55569 0.11857 0.02052
33.70000 1.49082 0.15281 0.02849
33.80000 1.42554 0.15357 -0.03102
33.90000 1.60602 0.01913 -0.04948
34.00000 1.52381 0.14178 -0.00480
34.10000 1.44485 0.18513 0.01324
34.20000 1.52307 0.22596 0.01464
34.30000 1.57581 0.16353 0.02547
34.40000 1.43629 0.04551 0.01144
34.50000 1.49801 -0.05250 -0.04171
34.60000 1.43646 -0.13185 0.03534
34.70000 1.50920 -0.19086 -0.04103
34.80000 1.56826 -0.03428 -0.00632
34.90000 1.44993 0.07974 0.02843
35.00000 1.52057 -0.04012 -0.00782
35.10000 1.55694 -0.10463 0.00389
35.20000 1.52250 -0.06284 0.03360
35.30000 1.41026 0.11235 0.04138
35.40000 1.55960 -0.12142 -0.02675
35.50000 1.56304 -0.10303 0.00392
35.60000 1.52468 -0.10799 -0.01899
35.70000 1.51553 0.16793 0.03892
35.80000 1.48301 0.38683 0.02436
35.90000 1.53231 0.35601 0.00012
36.00000 1.57011 0.09100 0.05935
36.10000 1.46405 0.00309 -0.08827
36.20000 1.51706 0.01136 -0.00034
36.30000 1.55436 0.08146 0.02167
36.40000 1.49098 -0.00733 -0.00340
36.50000 1.53170 -0.05795 -0.03231
36.60000 1.51204 -0.20994 0.04945
36.70000 1.54290 -0.07040 0.02402
36.80000 1.46381 0.17123 -0.00037
36.90000 1.56630 0.32729 -0.02753
37.00000 1.50727 0.13211 -0.03971
37.10000 1.49194 -0.05136 0.05396
37.20000 1.54958 -0.01729 -0.02129
37.30000 1.46528 -0.06196 -0.04772
37.40000 1.48174 0.00106 -0.01810
37.50000 1.53065 0.05875 0.02666
37.60000 1.53736 0.04989 0.03449
37.70000 1.48471 -0.02748 -0.00839
37.80000 1.45407 0.04537 0.02533
37.90000 1.47064 0.17040 0.05124
38.00000 1.59428 0.36940 -0.04055
38.10000 1.52178 0.21434 0.06780
38.20000 1.48673 -0.08450 0.03385
38.30000 1.49815 -0.04875 -0.03885
38.40000 1.56675 -0.08103 0.02025
38.50000 1.42561 -0.06335 -0.05724
38.60000 1.50816 -0.10593 0.01626
38.70000 1.54520 -0.13545 -0.01341
38.80000 1.50309 -0.12755 -0.02623
38.90000 1.46221 -0.05481 0.06323
39.00000 1.51012 0.06765 -0.04805
39.10000 1.50987 0.22475 -0.02075
39.20000 1.61114 0.11107 0.06246
39.30000 1.46813 -0.08946 -0.01360
39.40000 1.48209 -0.03087 -0.04164
39.50000 1.49439 -0.03200 0.00527
39.60000 1.48201 -0.08621 0.04706
39.70000 1.53987 -0.41504 -0.00664
39.80000 1.54401 -0.26643 -0.03181
39.90000 1.54136 0.00545 0.02839
40.00000 1.47794 0.22658 0.00215
40.10000 1.52574 0.17780 0.02595
40.20000 1.46055 -0.00820 -0.04439
40.30000 1.48466 -0.02461 0.01242
40.40000 1.54580 0.09488 -0.00720
40.50000 1.49295 -0.12383 -0.00941
40.60000 1.49836 -0.10057 -0.06183
40.70000 1.50825 0.16713 0.04306
40.80000 1.53906 0.09252 0.00832
40.90000 1.51757 0.05432 -0.02417
41.00000 1.47248 0.00336 -0.02232
41.10000 1.46098 -0.11288 0.03003
41.20000 1.48216 -0.07347 0.01157
41.30000 1.55148 -0.11988 0.05089
41.40000 1.52094 -0.07828 0.01872
41.50000 1.45495 0.08250 -0.00669
41.60000 1.48535 0.25945 -0.06235
41.70000 1.56628 0.16520 0.01922
41.80000 1.55438 0.04662 -0.00662
41.90000 1.49320 0.03951 -0.05348
42.00000 1.40770 0.14790 -0.01332
42.10000 1.49274 0.16296 0.02816
42.20000 1.53905 0.16939 -0.03015
42.30000 1.52269 0.12827 -0.03542
42.40000 1.47169 -0.18518 0.00629
42.50000 1.50801 -0.19235 -0.01139
42.60000 1.50735 0.03607 -0.03883
42.70000 1.55332 0.10576 0.02003
42.80000 1.50395 0.02083 -0.01986
42.90000 1.45740 0.04367 0.01753
43.00000 1.51983 0.13156 -0.00596
43.10000 1.55931 0.09084 -0.04664
43.20000 1.49235 -0.03017 0.00858
43.30000 1.44530 -0.17958 0.02272
43.40000 1.57110 -0.21259 0.00749
43.50000 1.52955 -0.20028 -0.02625
43.60000 1.45358 -0.14164 -0.04753
43.70000 1.53584 0.05124 0.00612
43.80000 1.52619 0.13669 0.01354
43.90000 1.48179 0.10967 -0.02672
44.00000 1.53550 -0.00489 0.02554
44.10000 1.49834 -0.10283 -0.01432
44.20000 1.48904 -0.16066 0.02166
44.30000 1.54085 -0.13438 0.01350
44.40000 1.49045 -0.07457 0.00610
44.50000 1.48107 0.05051 -0.01678
44.60000 1.52696 0.23203 0.03879
44.70000 1.55506 0.07917 0.00113
44.80000 1.50301 -0.05592 -0.01162
44.90000 1.49902 -0.03106 -0.00372
45.00000 1.51626 0.20544 -0.00636
45.10000 1.47314 0.28996 -0.01224
45.20000 1.49292 0.16838 0.01405
45.30000 1.54056 -0.04266 0.05611
45.40000 1.51000 -0.18154 -0.07833
45.50000 1.53213 -0.29324 -0.04197
45.60000 1.53267 -0.19875 0.03487
45.70000 1.52913 0.02805 -0.00716
45.80000 1.54119 -0.03950 -0.05221
45.90000 1.53460 -0.06965 0.01983
46.00000 1.53671 0.09752 -0.03241
46.10000 1.52330 0.35619 -0.00665
46.20000 1.51456 0.39711 0.03682
46.30000 1.53613 0.19741 -0.07870
46.40000 1.52109 0.12255 -0.02397
46.50000 1.44792 0.14543 0.05020
46.60000 1.48432 0.00275 -0.08113
46.70000 1.54487 0.10953 -0.04950
46.80000 1.52299 -0.03496 0.03682
46.90000 1.46478 -0.02484 -0.05744
47.00000 1.48831 0.15775 -0.02546
47.10000 1.59307 0.04719 0.02965
47.20000 1.51929 -0.29799 -0.07560
47.30000 1.53116 -0.47268 0.03705
47.40000 1.59153 -0.25757 0.03965
47.50000 1.54002 -0.17904 -0.02278
47.60000 1.48665 -0.30650 0.01807
47.70000 1.52509 -0.32130 0.01342
47.80000 1.55486 -0.28799 -0.02628
47.90000 1.43917 -0.23707 -0.04189
48.00000 1.46638 -0.26266 0.01740
48.10000 1.57808 -0.17016 -0.00681
48.20000 1.48981 -0.00345 -0.02534
48.30000 1.46702 -0.01102 0.04524
48.40000 1.55911 -0.01965 -0.03100
48.50000 1.55323 -0.01160 -0.00758
48.60000 1.47243 -0.11523 0.01200
48.70000 1.47159 -0.15569 -0.01407
48.80000 1.54782 -0.16830 -0.01948
48.90000 1.54204 -0.05886 0.03826
49.00000 1.48349 0.03676 -0.00470
49.10000 1.53056 0.05339 -0.00998
49.20000 1.57520 0.04995 0.00390
49.30000 1.46614 0.06485 -0.00047
49.40000 1.47240 0.01611 0.01398
49.50000 1.51182 -0.03417 0.06210
49.60000 1.50237 -0.22679 0.08544
49.70000 1.52243 -0.10198 -0.04861
49.80000 1.54686 -0.14422 -0.04094
49.90000 1.51717 -0.30766 0.03274
50.00000 1.50260 -0.40848 -0.02123
50.10000 1.54030 -0.23801 -0.00480
50.20000 1.48965 -0.08185 -0.03151
50.30000 1.49770 0.03342 -0.03828
50.40000 1.51374 0.08161 0.04979
50.50000 1.51931 -0.00899 0.00510
50.60000 1.48052 -0.02662 0.01893
50.70000 1.54238 -0.18449 -0.01289
50.80000 1.56287 -0.24643 0.02029
50.90000 1.54811 -0.23537 0.01370
51.00000 1.46861 -0.07932 -0.03632
51.10000 1.48049 0.18958 -0.04362
51.20000 1.53364 0.17344 -0.03665
51.30000 1.50337 -0.02068 0.05457
51.40000 1.47359 -0.05761 0.04535
51.50000 1.56744 -0.00773 -0.03732
51.60000 1.51819 0.02758 -0.03605
51.70000 1.52881 -0.21739 0.01867
51.80000 1.49877 -0.30219 0.05735
51.90000 1.55261 -0.08539 -0.00275
52.00000 1.52036 0.19673 -0.07781
52.10000 1.49308 0.30124 0.02572
52.20000 1.48917 0.24703 -0.00932
52.30000 1.54878 0.21013 -0.00847
52.40000 1.51670 0.11753 -0.04123
52.50000 1.49594 0.03488 -0.01916
52.60000 1.50303 0.08021 -0.01574
52.70000 1.50283 -0.16105 -0.01701
52.80000 1.51454 -0.08580 0.01242
52.90000 1.52335 0.13153 -0.02688
53.00000 1.51077 0.04603 0.02333
53.10000 1.53737 0.06822 -0.01660
53.20000 1.54982 -0.00576 -0.04122
53.30000 1.50585 -0.00589 0.02622
53.40000 1.49385 0.06811 -0.04901
53.50000 1.53579 0.16088 0.07498
53.60000 1.46700 0.09796 -0.07594
53.70000 1.51748 -0.05312 -0.00325
53.80000 1.52418 -0.11447 0.03549
53.90000 1.50783 -0.11445 0.04769
54.00000 1.44059 0.00272 -0.02657
54.10000 1.50178 0.06013 -0.02591
54.20000 1.57290 0.06701 0.04350
54.30000 1.52584 0.00301 0.09226
54.40000 1.47679 -0.15691 -0.02968
54.50000 1.50317 -0.17161 0.03537
54.60000 1.52252 -0.02666 -0.04884
54.70000 1.54664 0.21745 0.00164
54.80000 1.53552 0.11809 0.04559
54.90000 1.47560 -0.06657 0.03068
55.00000 1.53465 -0.00166 -0.10891
55.10000 1.52371 0.04284 0.01228
55.20000 1.51270 0.00518 0.05476
55.30000 1.49255 0.19291 -0.05160
55.40000 1.46835 0.12062 0.00097
55.50000 1.48801 -0.14316 0.03790
55.60000 1.50658 -0.30419 0.02359
55.70000 1.52501 -0.03566 -0.05426
55.80000 1.54423 0.10470 -0.03250
55.90000 1.49012 0.11618 0.01997
56.00000 1.49287 0.11848 -0.00769
56.10000 1.50796 -0.02910 0.02901
56.20000 1.53954 -0.04728 0.03196
56.30000 1.53244 -0.04865 0.01193
56.40000 1.51947 0.07184 -0.06191
56.50000 1.46968 0.04754 -0.00477
56.60000 1.54333 -0.10069 -0.01314
56.70000 1.53012 0.02464 0.04271
56.80000 1.51992 0.20717 -0.02613
56.90000 1.49116 0.32922 -0.00261
57.00000 1.47758 0.32326 -0.00371
57.10000 1.49713 0.28839 0.00970
57.20000 1.54966 -0.00370 0.01829
57.30000 1.50209 -0.28874 -0.01591
57.40000 1.55607 -0.40932 -0.00598
57.50000 1.49744 -0.16200 -0.00013
57.60000 1.52665 0.11207 -0.03310
57.70000 1.48127 0.28958 0.01128
57.80000 1.49167 0.14238 -0.01316
57.90000 1.46298 0.08989 0.01527
58.00000 1.62426 0.10520 0.00491
58.10000 1.53325 -0.00280 -0.01184
58.20000 1.46793 -0.13387 0.01402
58.30000 1.50980 -0.33213 -0.02620
58.40000 1.57345 -0.27590 -0.01205
58.50000 1.50447 -0.05577 -0.01250
58.60000 1.46707 0.13237 -0.03478
58.70000 1.47806 0.14435 -0.02412
58.80000 1.46658 0.13556 0.03976
58.90000 1.49396 0.16284 -0.06916
59.00000 1.54832 0.14701 0.06613
59.10000 1.56476 0.08070 0.04243
59.20000 1.56440 0.04149 -0.10348
59.30000 1.46107 0.01957 0.06548
59.40000 1.48325 -0.04365 0.00139
59.50000 1.52802 -0.05973 -0.01161
59.60000 1.51494 -0.07709 0.00357
59.70000 1.47138 -0.21575 0.01902
59.80000 1.49616 -0.07792 -0.01362
59.90000 1.52345 0.09721 -0.02597
60.00000 1.46011 0.34488 0.03991
60.10000 1.49137 0.32018 -0.01262
60.20000 1.57032 0.04585 -0.02646
60.30000 1.46398 -0.25491 -0.02062
60.40000 1.47636 -0.19306 0.00331
60.50000 1.47843 -0.08852 0.02382
60.60000 1.56146 -0.01942 -0.01636
60.70000 1.53491 -0.02716 0.00964
60.80000 1.52354 -0.03581 0.06145
60.90000 1.47883 0.06205 -0.01767
61.00000 1.50831 0.10965 -0.05774
61.10000 1.53857 -0.04588 0.02350
61.20000 1.52815 0.04364 0.02687
61.30000 1.47566 0.11077 -0.02678
61.40000 1.48388 0.13959 0.01762
61.50000 1.47787 0.08264 -0.02278
61.60000 1.52155 0.06177 -0.01062
61.70000 1.53491 -0.06508 -0.00488
61.80000 1.52252 -0.14858 0.04826
61.90000 1.55758 -0.18379 -0.02277
62.00000 1.48120 -0.11960 -0.02453
62.10000 1.46162 0.06412 -0.00690
62.20000 1.56511 0.09409 -0.01697
62.30000 1.57214 0.06074 -0.04239
62.40000 1.46490 0.04615 0.02935
62.50000 1.44935 -0.07827 -0.00877
62.60000 1.50554 -0.06223 -0.01425
62.70000 1.55870 0.01014 0.02056
62.80000 1.54803 0.06369 0.01908
62.90000 1.50940 0.15372 -0.01544
63.00000 1.48220 0.12328 -0.00825
63.10000 1.52664 0.09915 -0.00725
63.20000 1.50711 -0.19256 -0.00524
63.30000 1.57439 -0.08978 0.01554
63.40000 1.48175 -0.04817 -0.02801
63.50000 1.52018 0.00795 0.01283
63.60000 1.52033 0.19776 0.02518
63.70000 1.54660 0.20116 -0.06750
63.80000 1.53374 0.22025 0.04674
63.90000 1.52649 0.05280 0.04595
64.00000 1.53524 -0.01867 -0.07035
64.10000 1.47341 -0.00966 0.00724
64.20000 1.41555 0.10096 0.00816
64.30000 1.52474 0.33804 -0.04486
64.40000 1.53834 0.30264 0.05225
64.50000 1.46563 0.09583 -0.03883
64.60000 1.50281 0.01472 -0.05734
64.70000 1.58499 -0.08213 0.00506
64.80000 1.50389 -0.20308 -0.01028
64.90000 1.42336 -0.06773 0.02633
65.00000 1.48827 0.11370 -0.05593
65.10000 1.51291 0.26691 0.02435
65.20000 1.53498 0.04296 0.02876
65.30000 1.48108 -0.13644 0.03379
65.40000 1.52582 -0.41376 0.01487
65.50000 1.47496 -0.25702 0.04385
65.60000 1.48501 -0.16816 -0.01586
65.70000 1.51180 -0.08652 -0.03527
65.80000 1.53866 -0.04571 0.01125
65.90000 1.47532 -0.13099 -0.02713
66.00000 1.52045 -0.08049 -0.00780
66.10000 1.56285 0.05060 -0.00623
66.20000 1.49481 0.07319 0.00990
66.30000 1.46187 0.16701 -0.01463
66.40000 1.50455 0.05410 0.03580
66.50000 1.49973 0.02293 0.01968
66.60000 1.47856 0.00720 0.00808
66.70000 1.52612 0.06885 0.01803
66.80000 1.52083 -0.12922 0.00915
66.90000 1.49595 -0.21139 -0.01750
67.00000 1.52003 -0.14918 -0.00480
67.10000 1.48003 -0.09249 -0.01585
67.20000 1.52548 0.02236 0.00486
67.30000 1.55363 0.06340 0.00096
67.40000 1.49123 -0.06441 0.01584
67.50000 1.49136 0.03888 -0.06929
67.60000 1.51872 0.08670 -0.00480
67.70000 1.52063 0.13850 0.04406
67.80000 1.52046 -0.10648 -0.03186
67.90000 1.47581 -0.15336 0.04630
68.00000 1.50150 0.01585 0.02003
68.10000 1.51658 0.02064 -0.04847
68.20000 1.52337 0.05139 0.04517
68.30000 1.54290 -0.07742 -0.01574
68.40000 1.53300 0.02118 0.01814
68.50000 1.44696 0.12396 -0.03745
68.60000 1.52485 0.17593 0.04758
68.70000 1.50167 0.15863 -0.00057
68.80000 1.49100 0.15340 0.02732
68.90000 1.40122 0.09741 -0.02133
69.00000 1.45734 0.13706 -0.00360
69.10000 1.51993 0.04485 0.01534
69.20000 1.54025 0.07597 0.02053
69.30000 1.48651 0.00189 -0.04201
69.40000 1.51764 -0.13121 0.07266
69.50000 1.51011 -0.11089 0.01463
69.60000 1.50434 -0.18478 -0.03915
69.70000 1.55758 -0.34350 -0.04253
69.80000 1.50879 -0.23695 0.00101
69.90000 1.45047 -0.00335 0.05134
70.00000 1.49980 0.09767 -0.00169
70.10000 1.51342 0.06185 -0.04876
70.20000 1.54239 -0.03844 0.03317
70.30000 1.48682 -0.08257 -0.04738
70.40000 1.50504 0.04937 -0.00895
70.50000 1.47930 -0.07894 -0.04752
70.60000 1.53681 -0.14733 0.05244
70.70000 1.52116 -0.06846 0.01800
70.80000 1.54042 0.02242 -0.04043
70.90000 1.49807 0.04742 0.06253
71.00000 1.51336 0.04599 -0.02722
71.10000 1.52918 0.10060 -0.01498
71.20000 1.52417 0.07939 0.02620
71.30000 1.56223 -0.05567 0.00858
71.40000 1.50020 -0.16151 -0.00151
71.50000 1.54104 -0.08158 0.01057
71.60000 1.50155 -0.06632 -0.02915
71.70000 1.48316 -0.00084 0.03813
71.80000 1.49860 -0.08811 -0.05189
71.90000 1.52897 0.00407 0.03784
72.00000 1.48989 0.01449 -0.01715
72.10000 1.46569 -0.11831 -0.00320
72.20000 1.56186 -0.03412 0.01252
72.30000 1.51806 0.00096 -0.03600
72.40000 1.51576 0.06026 0.00886
72.50000 1.51098 0.05634 0.08440
72.60000 1.52662 0.10403 -0.00389
72.70000 1.54501 0.09464 -0.02407
72.80000 1.53724 0.01518 -0.01371
72.90000 1.44661 0.02185 -0.00548
73.00000 1.53238 0.12651 0.05975
73.10000 1.47850 -0.00567 -0.04993
73.20000 1.54030 -0.12611 -0.01210
73.30000 1.52050 -0.23118 0.01332
73.40000 1.48506 -0.24131 -0.00854
73.50000 1.44577 -0.19775 -0.03009
73.60000 1.54216 -0.16902 -0.02100
73.70000 1.53314 0.08312 0.07438
73.80000 1.48260 0.09405 -0.02151
73.90000 1.52657 0.08403 -0.07653
74.00000 1.48144 0.13574 0.04253
74.10000 1.54510 0.15208 -0.01955
74.20000 1.51963 -0.22649 -0.01428
74.30000 1.53240 -0.35874 -0.04999
74.40000 1.50539 -0.18256 -0.02509
74.50000 1.47835 -0.00480 0.00780
74.60000 1.55534 0.19467 0.05450
74.70000 1.46851 0.38390 -0.05116
74.80000 1.50803 0.36831 0.02873
74.90000 1.53893 0.33019 -0.02755
75.00000 1.53087 -0.03407 0.02715
75.10000 1.53744 -0.27946 -0.02483
75.20000 1.46349 -0.22889 -0.00782
75.30000 1.48418 -0.01924 -0.01492
75.40000 1.52783 0.17126 0.02789
75.50000 1.55546 0.01462 0.01922
75.60000 1.53399 -0.25921 -0.05861
75.70000 1.48294 -0.19816 -0.02807
75.80000 1.46932 -0.00658 0.02455
75.90000 1.49791 0.23628 0.03616
76.00000 1.47189 0.08422 -0.04004
76.10000 1.48121 -0.00102 0.00766
76.20000 1.52255 0.01121 0.08156
76.30000 1.51825 0.07200 0.03591
76.40000 1.51949 -0.01115 -0.00158
76.50000 1.52407 -0.07638 -0.00232
76.60000 1.44560 -0.04472 0.01545
76.70000 1.60841 -0.16416 -0.02806
76.80000 1.50161 -0.06395 0.03909
76.90000 1.44328 -0.05792 -0.00626
77.00000 1.56146 0.06115 -0.02782
77.10000 1.50286 0.17195 -0.00365
77.20000 1.47312 0.08627 0.06035
77.30000 1.56625 -0.12971 -0.02847
77.40000 1.53046 -0.25891 0.07715
77.50000 1.47683 0.01028 0.02131
77.60000 1.50258 0.29124 -0.02362
77.70000 1.50840 0.38464 -0.03543
77.80000 1.50563 0.07223 0.00050
77.90000 1.49103 -0.06873 0.07500
78.00000 1.46662 0.04753 -0.00303
78.10000 1.47881 0.14818 0.06380
78.20000 1.60779 0.27414 0.01656
78.30000 1.50128 0.07368 -0.06021
78.40000 1.44897 -0.17133 0.02230
78.50000 1.53734 -0.25579 0.06104
78.60000 1.55102 -0.16156 0.00007
78.70000 1.51296 0.03365 0.03073
78.80000 1.54392 0.16056 0.01084
78.90000 1.52929 0.12535 -0.02435
79.00000 1.46883 -0.00056 -0.01434
79.10000 1.50900 0.12180 0.04686
79.20000 1.49057 0.20888 -0.02518
79.30000 1.53356 -0.03582 -0.01965
79.40000 1.48905 -0.23307 0.02852
79.50000 1.47487 -0.27521 0.01475
79.60000 1.54315 -0.13442 0.00962
79.70000 1.53227 0.07781 0.00024
79.80000 1.50791 0.04434 0.05294
79.90000 1.50152 -0.19700 -0.02076
80.00000 1.50511 -0.02197 -0.01942
80.10000 1.51628 0.09562 0.02396
80.20000 1.46366 0.01566 -0.00978
80.30000 1.53617 -0.06758 -0.00839
80.40000 1.47995 -0.15505 0.02221
80.50000 1.47073 -0.18935 -0.03821
80.60000 1.49758 -0.02893 0.01571
80.70000 1.48746 0.03598 0.00310
80.80000 1.48753 0.16412 -0.04522
80.90000 1.49573 0.05250 0.01719
81.00000 1.48761 -0.05255 -0.00106
81.10000 1.51774 0.06722 -0.05184
81.20000 1.52134 0.19522 0.02705
81.30000 1.51491 0.15983 0.06913
81.40000 1.53842 -0.02507 -0.00116
81.50000 1.47943 -0.26961 -0.04596
81.60000 1.50626 -0.21868 0.03401
81.70000 1.50053 -0.24982 0.00659
81.80000 1.51558 -0.12271 -0.02092
81.90000 1.52532 -0.00504 0.02846
82.00000 1.48049 0.10368 0.00275
82.10000 1.52427 0.08750 0.00894
82.20000 1.51139 -0.05906 -0.03467
82.30000 1.52718 0.01998 0.00279
82.40000 1.53974 0.21061 -0.03193
82.50000 1.48795 0.13977 0.03364
82.60000 1.52637 0.01641 0.03741
82.70000 1.50776 -0.17545 -0.01640
82.80000 1.56255 -0.31160 0.02871
82.90000 1.46968 -0.20828 0.00368
83.00000 1.51008 -0.25343 -0.01268
83.10000 1.52674 -0.32575 0.00803
83.20000 1.51756 -0.08732 -0.04079
83.30000 1.47307 0.02782 0.00608
83.40000 1.53564 0.16189 -0.03949
83.50000 1.50028 0.04676 0.02940
83.60000 1.53913 0.01721 -0.00657
83.70000 1.57497 0.01241 -0.02734
83.80000 1.48714 0.10084 0.00370
83.90000 1.48148 0.25511 0.00317
84.00000 1.48369 0.21696 0.06613
84.10000 1.49701 0.09311 0.00225
84.20000 1.57531 0.04878 -0.01885
84.30000 1.47690 0.00310 -0.00426
84.40000 1.49747 0.01120 0.06324
84.50000 1.52293 0.04560 -0.01798
84.60000 1.53945 0.09940 -0.03083
84.70000 1.47293 0.13210 0.03961
84.80000 1.47329 0.05201 -0.05025
84.90000 1.54052 0.11971 0.01058
85.00000 1.58857 0.22715 0.02012
85.10000 1.46294 0.29785 0.04152
85.20000 1.48856 0.11965 0.04056
85.30000 1.43891 -0.12598 0.01529
85.40000 1.51225 -0.17039 -0.00958
85.50000 1.53441 -0.04222 -0.02068
85.60000 1.46594 0.05408 0.04564
85.70000 1.44953 -0.11215 0.00865
85.80000 1.50681 -0.10829 0.03998
85.90000 1.51470 0.05299 -0.02956
86.00000 1.41929 0.18626 0.03907
86.10000 1.54696 -0.00018 -0.02663
86.20000 1.56426 -0.00580 -0.07547
86.30000 1.51183 0.06949 0.00486
86.40000 1.44009 0.04217 0.01252
86.50000 1.49960 0.07377 0.01216
86.60000 1.52224 0.03368 -0.00252
86.70000 1.54753 -0.08842 -0.11135
86.80000 1.48201 -0.24988 -0.00212
86.90000 1.50676 -0.15125 0.06452
87.00000 1.56396 0.07906 0.00726
87.10000 1.54228 0.27326 -0.06359
87.20000 1.54803 0.16173 -0.00609
87.30000 1.47790 0.13975 0.04385
87.40000 1.53002 0.15104 -0.01438
87.50000 1.54527 0.15792 -0.01330
87.60000 1.53579 -0.03487 0.05022
87.70000 1.48367 -0.29199 0.03158
87.80000 1.48543 -0.34943 -0.02663
87.90000 1.55487 -0.11349 0.03271
88.00000 1.56816 0.09357 -0.04965
88.10000 1.52817 -0.02716 0.02654
88.20000 1.44627 -0.16188 -0.00511
88.30000 1.56001 -0.20862 0.01843
88.40000 1.53041 -0.20448 -0.07649
88.50000 1.46716 -0.23363 0.00173
88.60000 1.47928 -0.16380 0.02766
88.70000 1.52879 -0.04044 -0.02601
88.80000 1.51877 0.03751 -0.07902
88.90000 1.52543 0.18705 0.01260
89.00000 1.51070 0.14287 0.00160
89.10000 1.49070 0.08213 0.02086
89.20000 1.48800 -0.15397 -0.01397
89.30000 1.50753 -0.14588 -0.00760
89.40000 1.53253 -0.17500 -0.00247
89.50000 1.51159 -0.15886 -0.00197
89.60000 1.55687 -0.29401 -0.04284
89.70000 1.46504 -0.20819 0.05505
89.80000 1.53344 0.05087 -0.05744
89.90000 1.52255 0.33985 0.03863
90.00000 1.54905 0.43150 0.00305
90.10000 1.53094 0.28723 0.02103
90.20000 1.51496 0.20796 0.02587
90.30000 1.49278 0.11420 -0.00284
90.40000 1.48879 -0.02657 -0.02837
90.50000 1.47380 -0.13884 0.03493
90.60000 1.50824 -0.02099 0.04556
90.70000 1.52027 0.00406 -0.02149
90.80000 1.57581 -0.20442 -0.02877
90.90000 1.51432 -0.04634 0.04933
91.00000 1.54747 0.05450 -0.04935
91.10000 1.48884 -0.08554 -0.00992
91.20000 1.43207 -0.07971 0.02456
91.30000 1.48956 0.01060 0.04108
91.40000 1.58903 0.12749 -0.01009
91.50000 1.54964 0.11649 -0.04225
91.60000 1.51846 0.03305 -0.05610
91.70000 1.46978 -0.09768 -0.01446
91.80000 1.51850 -0.09420 0.02620
91.90000 1.56445 -0.09626 0.01148
92.00000 1.51151 -0.04461 -0.04295
92.10000 1.48528 0.13299 -0.02839
92.20000 1.47522 0.21106 -0.00707
92.30000 1.58894 0.03332 0.06205
92.40000 1.46593 0.04345 -0.01868
92.50000 1.47111 0.06503 -0.04449
92.60000 1.49798 0.08896 0.02845
92.70000 1.54396 0.20436 0.00582
92.80000 1.56321 0.26639 -0.03795
92.90000 1.45642 0.28595 -0.03517
93.00000 1.53446 -0.03081 0.05401
93.10000 1.57659 -0.23879 -0.04077
93.20000 1.45489 -0.35333 0.04719
93.30000 1.49081 -0.10401 -0.02450
93.40000 1.57562 0.25808 -0.07702
93.50000 1.50377 0.47124 0.06180
93.60000 1.46188 0.24246 0.02309
93.70000 1.53289 0.11772 -0.00127
93.80000 1.52179 0.07671 -0.07332
93.90000 1.50736 0.14593 0.03401
94.00000 1.50000 0.11073 -0.01807
94.10000 1.45791 -0.07717 -0.00236
94.20000 1.51183 -0.10754 0.02862
94.30000 1.54791 -0.07411 0.02283
94.40000 1.51186 0.09757 -0.05832
94.50000 1.54056 0.24052 0.00943
94.60000 1.55231 0.21182 -0.00842
94.70000 1.44467 -0.06693 0.03446
94.80000 1.59004 -0.15389 0.02379
94.90000 1.53056 -0.06488 0.02992
95.00000 1.49514 0.05613 -0.04060
95.10000 1.48896 0.35435 -0.01553
95.20000 1.49832 0.26526 0.04047
95.30000 1.52906 0.04950 0.00227
95.40000 1.53020 -0.01484 -0.04066
95.50000 1.49797 -0.33864 0.02493
95.60000 1.50125 -0.46082 -0.01509
95.70000 1.53571 -0.45132 0.01039
95.80000 1.57009 -0.35503 -0.01896
95.90000 1.53867 -0.24360 -0.02076
96.00000 1.51949 -0.04199 -0.01994
96.10000 1.43731 0.16616 0.02914
96.20000 1.53190 0.06380 0.02503
96.30000 1.49514 -0.08966 -0.01496
96.40000 1.42046 -0.17008 -0.05476
96.50000 1.46720 -0.05504 0.02798
96.60000 1.56854 -0.10811 -0.01160
96.70000 1.53310 -0.02899 0.03183
96.80000 1.48370 0.07207 0.02446
96.90000 1.49337 -0.13320 0.03193
97.00000 1.53972 -0.11434 -0.03982
97.10000 1.49765 0.13134 0.07487
97.20000 1.58554 0.01614 -0.07448
97.30000 1.51421 -0.14405 -0.04799
97.40000 1.49903 -0.07272 0.05063
97.50000 1.47377 -0.08242 -0.00610
97.60000 1.55841 -0.17503 -0.01004
97.70000 1.51022 -0.34207 -0.07305
97.80000 1.51861 -0.25604 0.00971
97.90000 1.52197 0.06344 0.04645
98.00000 1.53461 0.17393 -0.03591
98.10000 1.51645 0.23890 -0.00074
98.20000 1.51258 0.10563 0.00306
98.30000 1.47036 -0.06158 -0.07266
98.40000 1.50162 -0.15689 -0.03214
98.50000 1.53581 -0.14370 0.03542
98.60000 1.45931 0.02075 -0.04644
98.70000 1.49102 0.24131 -0.04948
98.80000 1.53371 0.29489 0.06965
98.90000 1.54190 0.07786 0.03857
99.00000 1.50656 0.06141 -0.05495
99.10000 1.55601 0.05663 0.00246
99.20000 1.48471 0.11234 -0.00982
99.30000 1.46036 0.13337 -0.02357
99.40000 1.46143 0.10354 0.10067
99.50000 1.57192 0.22753 -0.06610
99.60000 1.61389 -0.05792 -0.02194
99.70000 1.50085 -0.29754 0.07552
99.80000 1.45850 -0.27274 -0.08613
99.90000 1.57099 -0.02705 0.02343
100.00000 1.57208 0.22403 -0.02507
100.10000 1.48762 0.12947 0.01286
100.20000 1.47949 -0.21478 0.01497
100.30000 1.54051 -0.37561 0.01342
100.40000 1.49400 -0.22888 0.00131
100.50000 1.51454 0.06501 -0.05405
100.60000 1.57266 0.16524 0.03898
100.70000 1.49707 0.04093 -0.05549
100.80000 1.52039 -0.09567 0.03612
100.90000 1.51025 -0.24268 0.00042
101.00000 1.48495 0.11814 -0.00115
101.10000 1.51377 0.27445 -0.01745
101.20000 1.52524 0.18670 -0.03650
101.30000 1.53647 0.18574 0.00351
101.40000 1.51662 0.33311 0.02814
101.50000 1.48687 0.13605 -0.04087
101.60000 1.49117 0.10249 -0.00544
101.70000 1.51380 0.03418 0.00486
101.80000 1.48450 -0.13765 0.06890
101.90000 1.54897 -0.15062 -0.04973
102.00000 1.55704 -0.04466 -0.01988
102.10000 1.42341 -0.01360 -0.01954
102.20000 1.50379 0.04544 0.00655
102.30000 1.49661 0.05741 0.08326
102.40000 1.48987 0.13517 -0.02938
102.50000 1.56731 -0.01618 -0.03503
102.60000 1.53908 -0.06193 0.04791
102.70000 1.49690 -0.02450 0.01366
102.80000 1.50944 0.06384 -0.00124
102.90000 1.53264 -0.02114 -0.00454
103.00000 1.53529 0.01168 -0.02831
103.10000 1.45835 0.03189 -0.01358
103.20000 1.55410 0.00032 0.02360
103.30000 1.51059 0.13734 -0.03815
103.40000 1.50678 0.17040 0.00581
103.50000 1.49796 0.12917 0.03656
103.60000 1.55389 0.10016 -0.06571
103.70000 1.53992 -0.09125 -0.01268
103.80000 1.52891 -0.39562 0.03079
103.90000 1.51748 -0.45396 0.02042
104.00000 1.53278 -0.29567 -0.02624
104.10000 1.56574 -0.17742 -0.06630
104.20000 1.57084 0.16124 -0.02137
104.30000 1.45597 0.09084 0.05747
104.40000 1.49388 -0.10681 0.00621
104.50000 1.53290 -0.11072 0.00204
104.60000 1.52728 -0.02054 -0.08983
104.70000 1.52677 0.12702 0.03677
104.80000 1.50301 0.22548 -0.03070
104.90000 1.48827 0.46730 0.00069
105.00000 1.52007 0.27420 -0.04119
105.10000 1.49559 -0.09010 -0.01543
105.20000 1.51278 -0.20205 0.00296
105.30000 1.53229 -0.10437 0.00972
105.40000 1.49130 0.03116 -0.06234
105.50000 1.52045 0.17098 -0.03232
105.60000 1.56269 -0.00273 0.01136
105.70000 1.46776 -0.17086 -0.05801
105.80000 1.52486 -0.17306 0.03554
105.90000 1.55366 -0.03405 0.04152
106.00000 1.52716 0.03544 -0.04887
106.10000 1.49546 -0.07372 0.01708
106.20000 1.44050 -0.13560 0.07503
106.30000 1.55336 -0.21245 -0.10994
106.40000 1.51120 -0.21659 -0.02737
106.50000 1.46081 -0.20910 0.10510
106.60000 1.54856 0.00488 -0.00581
106.70000 1.52030 0.09345 0.00248
106.80000 1.48744 0.11795 0.01376
106.90000 1.43735 0.19195 0.02725
107.00000 1.49043 0.08748 0.00119
107.10000 1.55040 -0.02386 -0.02963
107.20000 1.51634 -0.06656 -0.03555
107.30000 1.50330 0.16604 0.03582
107.40000 1.55545 0.17385 -0.01968
107.50000 1.50838 0.08441 0.00392
107.60000 1.47455 -0.03834 -0.01547
107.70000 1.49724 0.03964 0.05890
107.80000 1.56742 -0.09990 -0.11456
107.90000 1.48249 -0.11753 0.05849
108.00000 1.46630 -0.13105 0.05608
108.10000 1.50098 -0.08426 -0.04331
108.20000 1.55158 0.18837 -0.03039
108.30000 1.54094 0.13034 0.03872
108.40000 1.47686 -0.15281 0.00559
108.50000 1.48213 -0.23816 -0.03532
108.60000 1.52582 -0.16497 -0.00467
108.70000 1.48493 -0.10235 -0.03551
108.80000 1.51505 -0.01830 -0.01378
108.90000 1.58101 -0.02343 0.02458
109.00000 1.52185 -0.02215 0.00659
109.10000 1.48156 -0.08595 -0.02523
109.20000 1.53800 0.11532 -0.03658
109.30000 1.55907 0.17244 0.06432
109.40000 1.44261 0.19218 0.02911
109.50000 1.51319 0.05408 -0.06080
109.60000 1.55718 -0.07572 0.03606
109.70000 1.48602 -0.13575 0.01852
109.80000 1.52321 -0.05971 -0.09566
109.90000 1.51288 0.07620 0.02932
110.00000 1.47780 0.07295 -0.00902
110.10000 1.50969 -0.16211 -0.00714
110.20000 1.51181 -0.26322 -0.03182
110.30000 1.50151 -0.23567 0.04987
110.40000 1.49555 -0.23296 0.07564
110.50000 1.53621 -0.22486 -0.05498
110.60000 1.51205 -0.12204 -0.02611
110.70000 1.48568 0.03757 0.04199
110.80000 1.55013 -0.05977 -0.00479
110.90000 1.49472 0.02385 0.01619
111.00000 1.49979 0.19155 -0.02286
111.10000 1.53966 0.22199 -0.02581
111.20000 1.49431 -0.04369 0.05614
111.30000 1.51264 -0.03155 0.02882
111.40000 1.48194 0.00238 0.00107
111.50000 1.56225 -0.15430 -0.02460
111.60000 1.50125 -0.07505 0.03740
111.70000 1.53322 -0.02409 -0.07182
111.80000 1.47358 -0.00946 0.02242
111.90000 1.52286 -0.03214 0.03754
112.00000 1.55653 -0.05251 -0.01050
112.10000 1.50286 -0.00204 -0.01771
112.20000 1.53410 0.00361 -0.02032
112.30000 1.50699 -0.14124 0.01270
112.40000 1.40321 -0.02998 0.02436
112.50000 1.53392 0.09039 -0.00168
112.60000 1.48495 0.26771 0.09633
112.70000 1.52068 0.21755 0.03575
112.80000 1.49277 -0.10482 -0.02356
112.90000 1.53300 -0.10006 -0.02167
113.00000 1.54286 -0.11428 0.06170
113.10000 1.52399 -0.03360 -0.05129
113.20000 1.48169 -0.04145 -0.00552
113.30000 1.48742 0.02761 0.01934
113.40000 1.51481 0.04490 -0.05647
113.50000 1.50778 0.05332 0.05337
113.60000 1.58158 -0.10209 0.04847
113.70000 1.48721 -0.10260 -0.06343
113.80000 1.45865 -0.15027 -0.04806
113.90000 1.54269 -0.03747 0.03285
114.00000 1.51438 0.11531 0.00876
114.10000 1.49546 0.04646 -0.00456
114.20000 1.47305 -0.01463 0.04172
114.30000 1.53821 -0.20092 -0.01148
114.40000 1.55901 0.07165 -0.00430
114.50000 1.45674 0.10760 0.03673
114.60000 1.46318 0.06997 -0.00083
114.70000 1.57369 0.08208 -0.04759
114.80000 1.48392 0.29884 0.02167
114.90000 1.48721 0.32471 0.00206
115.00000 1.51790 0.23750 -0.03890
115.10000 1.48673 -0.04082 -0.01431
115.20000 1.55524 -0.10743 0.01442
115.30000 1.50944 0.10848 -0.00683
115.40000 1.44856 0.12499 -0.07584
115.50000 1.55644 0.03981 0.04748
115.60000 1.55553 -0.09097 0.00677
115.70000 1.48140 -0.01261 -0.05389
115.80000 1.54955 0.05598 0.08040
115.90000 1.50289 -0.05320 0.00772
116.00000 1.52044 -0.22020 -0.06879
116.10000 1.50048 -0.10691 0.12574
116.20000 1.54550 0.01497 -0.03902
116.30000 1.54287 0.03449 -0.00865
116.40000 1.53397 0.21807 0.01722
116.50000 1.49441 0.26969 0.00611
116.60000 1.53722 0.07736 -0.00239
116.70000 1.47315 -0.07807 -0.05589
116.80000 1.52684 0.08853 -0.00636
116.90000 1.50623 0.21625 0.04699
117.00000 1.45933 0.21116 -0.07260
117.10000 1.52305 0.12611 0.00811
117.20000 1.54424 -0.06360 -0.07672
117.30000 1.50847 -0.12793 -0.03189
117.40000 1.53761 0.00391 0.05646
117.50000 1.50797 0.05918 0.02447
117.60000 1.53410 -0.05711 -0.05057
117.70000 1.50530 -0.17775 -0.02497
117.80000 1.52747 -0.07135 0.05695
117.90000 1.50733 0.02343 -0.04393
118.00000 1.53277 0.08710 -0.03583
118.10000 1.47714 0.04489 0.05254
118.20000 1.55337 0.04714 0.02723
118.30000 1.55709 0.05257 -0.16527
118.40000 1.50258 -0.00838 0.05219
118.50000 1.45138 0.00771 0.04416
118.60000 1.50362 0.03049 -0.02524
118.70000 1.55134 -0.04807 0.02558
118.80000 1.56920 -0.01205 -0.00121
118.90000 1.49388 0.04942 0.07701
119.00000 1.53571 -0.13192 -0.01121
119.10000 1.50271 -0.19764 -0.04937
119.20000 1.52852 -0.11874 0.00294
119.30000 1.48507 -0.17177 0.01786
119.40000 1.52003 -0.23663 -0.02529
119.50000 1.54423 -0.05689 0.05378
119.60000 1.51705 0.17064 0.03696
119.70000 1.53202 0.23562 -0.01288
119.80000 1.52008 0.26292 -0.00624
119.90000 1.53549 0.12937 0.01288
120.00000 1.50217 -0.17765 -0.00699
120.10000 1.51725 -0.16158 0.00467
120.20000 1.47289 -0.09713 0.03910
120.30000 1.50817 -0.00647 0.00776
120.40000 1.59433 0.09686 -0.02990
120.50000 1.53456 0.09866 -0.00364
120.60000 1.48234 -0.13379 0.00731
120.70000 1.52299 -0.10213 -0.04981
120.80000 1.52687 -0.00545 0.00859
120.90000 1.50931 0.02623 0.02728
121.00000 1.49536 0.06882 0.01158
121.10000 1.50857 0.06102 0.03681
121.20000 1.55463 -0.11444 0.05775
121.30000 1.47780 -0.20924 -0.00681
121.40000 1.42383 -0.13774 -0.02809
121.50000 1.52321 0.05584 0.01279
121.60000 1.50193 0.18410 -0.04733
121.70000 1.56016 0.01663 0.06314
121.80000 1.53749 -0.06278 -0.03046
121.90000 1.48980 0.06181 -0.00927
122.00000 1.48265 -0.00176 0.01971
122.10000 1.49456 0.00325 0.05200
122.20000 1.49776 0.08403 -0.02811
122.30000 1.55357 0.12367 0.06393
122.40000 1.55020 -0.03402 -0.04127
122.50000 1.54778 -0.01072 -0.00837
122.60000 1.46273 -0.11559 -0.04001
122.70000 1.53531 -0.19853 0.04520
122.80000 1.50935 -0.34136 0.07591
122.90000 1.52508 -0.26271 0.00852
123.00000 1.49109 -0.28359 -0.03508
123.10000 1.51409 -0.14057 -0.03546
123.20000 1.52223 -0.05851 0.02237
123.30000 1.52260 0.08446 0.05640
123.40000 1.50933 0.18720 -0.04330
123.50000 1.50346 0.09419 -0.01765
123.60000 1.52424 0.01275 -0.02029
123.70000 1.53196 -0.12713 0.03840
123.80000 1.50032 -0.03052 -0.04307
123.90000 1.55493 0.17475 0.00321
124.00000 1.49204 0.13571 0.01591
124.10000 1.51011 0.27085 -0.01581
124.20000 1.49905 0.23049 -0.05678
124.30000 1.51926 0.00448 0.04489
124.40000 1.54772 -0.03312 0.00486
124.50000 1.48833 0.06813 0.04032
124.60000 1.50340 0.08045 0.01567
124.70000 1.54681 0.11324 -0.02563
124.80000 1.54132 0.03937 0.02672
124.90000 1.54192 0.05135 -0.01304
125.00000 1.52635 0.11295 -0.03824
125.10000 1.48112 0.05374 -0.03986
125.20000 1.51041 0.04984 0.01311
125.30000 1.53393 0.11643 -0.07165
125.40000 1.48846 0.02171 0.01686
125.50000 1.51164 -0.12652 0.05989
125.60000 1.54513 -0.21745 0.01395
125.70000 1.44693 0.04637 -0.06092
125.80000 1.56757 0.02637 0.01912
125.90000 1.54835 -0.18461 0.00037
126.00000 1.48219 -0.08071 -0.00606
126.10000 1.46820 0.17007 -0.01616
126.20000 1.52019 0.07921 -0.00540
126.30000 1.50946 -0.09332 0.02742
126.40000 1.52003 -0.00391 0.03626
126.50000 1.52488 0.09774 -0.09308
126.60000 1.52323 -0.02825 0.06889
126.70000 1.52667 -0.16788 0.01260
126.80000 1.41976 -0.38865 -0.02823
126.90000 1.43952 -0.23389 -0.03777
127.00000 1.59420 0.06117 0.03649
127.10000 1.55405 0.28042 -0.06078
127.20000 1.51687 0.18243 0.00299
127.30000 1.49645 0.03385 0.04881
127.40000 1.50382 -0.10349 -0.03426
127.50000 1.56764 -0.07719 -0.07705
127.60000 1.54294 -0.07087 0.02595
127.70000 1.47614 0.05829 0.00647
127.80000 1.46532 0.23557 -0.03608
127.90000 1.54437 0.10678 0.02351
128.00000 1.47357 0.11977 -0.02324
128.10000 1.54828 -0.00987 -0.00514
128.20000 1.56058 -0.29425 0.02635
128.30000 1.49128 -0.18233 -0.08449
128.40000 1.48882 0.21888 0.01520
128.50000 1.49837 0.37179 0.03418
128.60000 1.49553 0.33163 -0.10267
128.70000 1.55437 0.05805 -0.01000
128.80000 1.52117 -0.40231 0.00062
128.90000 1.50306 -0.56935 0.03507
129.00000 1.47426 -0.45155 -0.00934
129.10000 1.56304 -0.13472 -0.01013
129.20000 1.52053 -0.09318 0.05178
129.30000 1.52087 -0.27808 -0.05157
129.40000 1.48034 -0.16732 0.07358
129.50000 1.52242 -0.01344 0.02954
129.60000 1.54733 -0.00496 -0.03314
129.70000 1.49113 -0.06052 -0.00321
129.80000 1.47339 -0.07043 0.00771
129.90000 1.47805 -0.21112 0.01066
130.00000 1.51556 -0.28502 0.00924
130.10000 1.50797 -0.19738 0.08311
130.20000 1.50987 -0.26061 0.00510
130.30000 1.53445 -0.17508 0.02630
130.40000 1.51825 0.13011 -0.02479
130.50000 1.47127 0.26650 0.05772
130.60000 1.52998 0.08645 -0.03426
130.70000 1.50507 -0.13292 -0.07392
130.80000 1.52936 -0.33943 -0.03350
130.90000 1.56736 -0.24160 0.01009
131.00000 1.48628 0.09470 0.03372
131.10000 1.51647 0.23929 -0.01722
131.20000 1.45735 -0.14347 0.04099
131.30000 1.47497 -0.33509 -0.05399
131.40000 1.50304 -0.29933 0.01081
131.50000 1.54723 -0.16106 0.00558
131.60000 1.51318 0.06746 -0.04517
131.70000 1.49155 0.14278 0.02047
131.80000 1.53631 -0.15205 0.02927
131.90000 1.53292 -0.36456 -0.05679
132.00000 1.47281 -0.36891 0.01931
132.10000 1.46318 -0.22947 0.07074
132.20000 1.49077 0.04026 -0.03398
132.30000 1.58136 0.03212 -0.05184
132.40000 1.48033 0.00225 0.06270
132.50000 1.44006 0.11428 0.02754
132.60000 1.51194 0.31589 -0.05941
132.70000 1.53171 0.26479 0.01541
132.80000 1.49197 0.10799 0.02574
132.90000 1.50587 0.08283 -0.06104
133.00000 1.51603 0.08539 -0.01112
133.10000 1.50460 0.01627 -0.03482
133.20000 1.51135 -0.09198 0.03088
133.30000 1.55463 0.04916 -0.00631
133.40000 1.51704 0.17289 -0.01558
133.50000 1.52355 0.19931 0.00299
133.60000 1.48507 0.13525 -0.00971
133.70000 1.47507 0.05081 -0.00164
133.80000 1.55002 0.00493 -0.01974
133.90000 1.54160 0.06109 -0.01715
134.00000 1.52745 -0.03609 0.03493
134.10000 1.54308 0.09094 -0.00759
134.20000 1.47529 0.20324 -0.02312
134.30000 1.49923 0.18577 -0.00893
134.40000 1.49367 -0.10372 0.00763
134.50000 1.50251 -0.20513 0.04409
134.60000 1.56718 -0.11996 -0.02473
134.70000 1.50491 0.02024 -0.02856
134.80000 1.43552 0.13388 -0.00211
134.90000 1.55845 -0.07621 -0.01723
135.00000 1.58158 -0.15664 -0.00782
135.10000 1.49720 -0.13363 0.00990
135.20000 1.49984 -0.10051 0.01032
135.30000 1.49596 -0.23029 -0.02900
135.40000 1.50973 -0.32073 0.05032
135.50000 1.47639 -0.02606 -0.00889
135.60000 1.55701 0.10394 -0.02074
135.70000 1.55810 -0.00143 -0.00514
135.80000 1.48354 0.12447 -0.02782
135.90000 1.51213 0.12477 -0.01161
136.00000 1.55865 -0.05694 -0.01451
136.10000 1.48636 -0.09924 0.02098
136.20000 1.54511 -0.08765 -0.05233
136.30000 1.49368 -0.12971 -0.02047
136.40000 1.47523 0.07428 -0.05396
136.50000 1.53040 0.09996 0.07441
136.60000 1.51767 0.25197 0.04225
136.70000 1.51935 0.12689 -0.03074
136.80000 1.55162 -0.06823 -0.00850
136.90000 1.50289 -0.13423 0.02429
137.00000 1.44201 -0.08225 -0.00719
137.10000 1.49565 0.04745 -0.03074
137.20000 1.52695 0.16911 0.04245
137.30000 1.50563 0.03855 -0.01339
137.40000 1.51562 -0.03933 -0.04399
137.50000 1.50540 -0.19322 0.00043
137.60000 1.57952 -0.31179 0.02241
137.70000 1.47774 -0.25515 0.03198
137.80000 1.53769 -0.10033 -0.07095
137.90000 1.50926 0.04143 0.02580
138.00000 1.47634 0.08755 -0.01069
138.10000 1.58842 0.12016 -0.02803
138.20000 1.43023 0.20510 0.01626
138.30000 1.52527 0.11915 0.03857
138.40000 1.51267 -0.03868 -0.02388
138.50000 1.50131 -0.06987 -0.02709
138.60000 1.51798 -0.05232 0.02077
138.70000 1.44406 -0.13816 0.03528
138.80000 1.48015 -0.11798 0.00101
138.90000 1.49410 -0.11550 -0.00776
139.00000 1.47639 -0.25646 0.00345
139.10000 1.50741 -0.11243 0.00516
139.20000 1.51853 -0.10337 -0.01518
139.30000 1.51895 -0.15164 0.07253
139.40000 1.50350 -0.26093 -0.00440
139.50000 1.47251 -0.21112 0.03556
139.60000 1.49827 0.05916 0.02022
139.70000 1.52713 0.35975 -0.02701
139.80000 1.49448 0.60147 0.01017
139.90000 1.51008 0.48344 -0.02891
140.00000 1.50191 0.28576 -0.02767
140.10000 1.52612 -0.08229 -0.00040
140.20000 1.48649 -0.29016 0.00828
140.30000 1.47896 -0.17463 -0.01378
140.40000 1.50862 -0.03695 -0.00264
140.50000 1.54909 -0.06355 0.03141
140.60000 1.43394 -0.02040 -0.02466
140.70000 1.46591 0.16374 0.01153
140.80000 1.51276 0.18771 -0.03554
140.90000 1.51520 -0.11864 -0.03350
141.00000 1.51966 -0.32218 0.02485
141.10000 1.50434 -0.31347 -0.04508
141.20000 1.47526 -0.25182 0.03341
141.30000 1.53067 -0.31195 -0.01225
141.40000 1.51239 -0.29377 0.03500
141.50000 1.50761 -0.10858 0.01555
141.60000 1.47242 -0.07749 -0.01485
141.70000 1.50134 -0.11100 -0.05012
141.80000 1.55357 0.08308 0.03215
141.90000 1.48066 0.28068 0.01911
142.00000 1.55038 0.30748 -0.01636
142.10000 1.54383 0.06523 0.06999
142.20000 1.46691 -0.02841 -0.03629
142.30000 1.51421 0.04103 0.01220
142.40000 1.51208 -0.10795 0.00144
142.50000 1.47140 -0.05939 -0.02772
142.60000 1.57533 0.03195 0.03653
142.70000 1.47977 0.02303 0.03638
142.80000 1.48710 0.07623 0.06298
142.90000 1.54586 0.13927 0.00114
143.00000 1.49220 0.15240 -0.04463
143.10000 1.52964 0.14173 0.02065
143.20000 1.50870 -0.01074 -0.01835
143.30000 1.49416 -0.30137 0.01387
143.40000 1.49781 -0.47605 -0.01005
143.50000 1.57118 -0.39730 0.04603
143.60000 1.49468 -0.17723 0.01778
143.70000 1.49317 0.05653 -0.02201
143.80000 1.50416 0.05187 0.02263
143.90000 1.48625 -0.00050 0.02105
144.00000 1.53924 0.05164 0.03377
144.10000 1.55446 0.13327 -0.01723
144.20000 1.53047 0.24820 0.00263
144.30000 1.50021 0.10485 -0.04556
144.40000 1.53650 -0.06032 0.02819
144.50000 1.48031 -0.11312 -0.01484
144.60000 1.51917 -0.09926 0.03453
144.70000 1.50447 -0.04916 0.05633
144.80000 1.45213 0.14952 -0.02812
144.90000 1.50933 0.15810 -0.03101
145.00000 1.56084 -0.03645 0.04274
145.10000 1.50580 -0.03629 0.00071
145.20000 1.52292 0.17881 0.01330
145.30000 1.50786 0.33412 -0.01427
145.40000 1.49349 0.31077 0.01225
145.50000 1.50777 0.09256 -0.00131
145.60000 1.53797 -0.04063 -0.01162
145.70000 1.49442 0.07711 0.01209
145.80000 1.54510 0.07879 -0.02022
145.90000 1.53952 0.05157 0.02452
146.00000 1.51435 -0.19930 0.01079
146.10000 1.51016 -0.15822 -0.02398
146.20000 1.53984 -0.01605 -0.04627
146.30000 1.48845 0.16815 -0.00427
146.40000 1.46895 0.23341 0.03860
146.50000 1.52428 0.25942 -0.04170
146.60000 1.54488 0.21730 0.01745
146.70000 1.56023 0.28895 -0.01677
146.80000 1.45374 0.30351 0.02566
146.90000 1.43803 0.17073 0.01485
147.00000 1.52947 0.07398 0.01525
147.10000 1.55636 0.01359 0.00035
147.20000 1.45658 -0.08938 -0.00585
147.30000 1.48386 -0.40963 -0.00258
147.40000 1.51941 -0.41736 -0.01831
147.50000 1.51243 -0.19296 -0.04659
147.60000 1.46228 0.06376 -0.00922
147.70000 1.46707 0.30893 0.05169
147.80000 1.52894 0.35238 -0.03483
147.90000 1.50569 0.22234 -0.02011
148.00000 1.51296 0.12205 -0.00211
148.10000 1.56522 0.03449 -0.00606
148.20000 1.51162 0.18622 0.02289
148.30000 1.52259 0.14897 -0.01700
148.40000 1.58812 0.25197 -0.02629
148.50000 1.47996 0.40866 -0.01734
148.60000 1.51233 -0.06219 0.01204
148.70000 1.55691 -0.20368 0.00344
148.80000 1.53191 -0.10032 -0.00090
148.90000 1.45618 0.06130 0.02690
149.00000 1.46656 0.15086 0.03823
149.10000 1.53160 -0.01136 -0.03441
149.20000 1.53821 -0.05299 -0.01247
149.30000 1.55568 -0.06822 0.09238
149.40000 1.47636 0.05355 0.01555
149.50000 1.46043 0.12663 -0.01980
149.60000 1.55374 -0.16497 0.01397
149.70000 1.52747 -0.21086 0.01794
149.80000 1.53113 -0.30457 0.00148
149.90000 1.51700 -0.19093 -0.05272
150.00000 1.43622 -0.01245 0.01408
150.10000 1.49488 -0.03601 0.00692
150.20000 1.51598 -0.00345 -0.03304
150.30000 1.52439 0.10849 0.00285
150.40000 1.51415 0.11522 0.05320
150.50000 1.47563 0.11626 -0.00343
150.60000 1.55413 0.02272 -0.02978
150.70000 1.57628 0.14777 0.01446
150.80000 1.45836 0.22408 0.00061
150.90000 1.48096 0.15466 0.03484
151.00000 1.55057 0.06543 0.01352
151.10000 1.55237 0.02622 0.02095
151.20000 1.42087 0.01776 0.02941
151.30000 1.59048 0.18333 -0.03221
151.40000 1.52992 0.20776 -0.04790
151.50000 1.40377 0.18033 -0.00052
151.60000 1.42752 0.09035 -0.03771
151.70000 1.60936 -0.01206 0.03947
151.80000 1.51263 0.04487 -0.03412
151.90000 1.46798 0.10052 0.01682
152.00000 1.50369 0.07562 0.02277
152.10000 1.53806 -0.05131 -0.03332
152.20000 1.51780 -0.07426 0.01378
152.30000 1.49234 -0.06898 -0.00612
152.40000 1.50424 -0.05416 -0.01547
152.50000 1.49292 -0.14202 0.02993
152.60000 1.45249 -0.06750 -0.00809
152.70000 1.56542 0.06951 0.01200
152.80000 1.52860 0.05125 -0.03195
152.90000 1.49175 0.03999 0.01005
153.00000 1.52670 0.04688 -0.01667
153.10000 1.52469 0.14871 0.00919
153.20000 1.50528 0.22768 0.01206
153.30000 1.47020 0.30904 0.03318
153.40000 1.53606 0.04745 0.00751
153.50000 1.50672 0.03839 0.00368
153.60000 1.54039 -0.04680 0.01797
153.70000 1.46664 -0.00141 -0.02244
153.80000 1.50094 0.08225 -0.05205
153.90000 1.51101 0.06875 0.04850
154.00000 1.47480 -0.14769 0.01421
154.10000 1.50610 -0.19371 -0.09684
154.20000 1.51530 -0.36140 0.06444
154.30000 1.50429 -0.15007 -0.01431
154.40000 1.44238 0.11533 -0.03416
154.50000 1.52897 0.24236 0.04590
154.60000 1.50004 0.03640 -0.00932
154.70000 1.51814 -0.11839 0.01786
154.80000 1.43289 -0.13912 0.05036
154.90000 1.50921 0.03801 -0.07062
155.00000 1.55051 0.04271 0.01291
155.10000 1.46160 0.20331 0.03828
155.20000 1.47750 0.33598 -0.01063
155.30000 1.49858 0.14687 -0.02684
155.40000 1.52481 0.05899 0.01428
155.50000 1.51585 0.06628 0.00048
155.60000 1.47763 0.03250 0.00321
155.70000 1.54283 0.10343 -0.05579
155.80000 1.54682 -0.03791 0.03469
155.90000 1.50465 -0.11377 0.05658
156.00000 1.45674 -0.00686 -0.04524
156.10000 1.51812 0.22510 -0.03308
156.20000 1.49658 0.34641 0.08363
156.30000 1.53214 0.23777 -0.04832
156.40000 1.51836 0.06230 -0.04457
156.50000 1.56997 0.07595 0.05364
156.60000 1.51464 0.15251 -0.02897
156.70000 1.47082 0.09813 -0.05975
156.80000 1.52367 0.06651 0.00626
156.90000 1.51653 -0.01971 -0.01150
157.00000 1.53120 -0.19773 0.03768
157.10000 1.47903 -0.20744 0.02775
157.20000 1.49720 -0.06315 -0.01520
157.30000 1.49477 0.27063 -0.02656
157.40000 1.49682 0.30519 -0.03493
157.50000 1.48583 0.11459 -0.00393
157.60000 1.51003 0.07914 -0.00588
157.70000 1.50214 0.18771 0.00994
157.80000 1.57245 0.09579 0.04941
157.90000 1.51092 0.00804 0.02363
158.00000 1.48574 0.11649 -0.03641
158.10000 1.57875 -0.03623 0.02994
158.20000 1.53594 -0.17927 -0.00863
158.30000 1.43793 -0.11495 0.01753
158.40000 1.49970 0.02555 -0.01323
158.50000 1.51058 0.03848 -0.00831
158.60000 1.60353 0.13535 0.02070
158.70000 1.48247 0.21849 -0.00384
158.80000 1.42832 0.02443 0.00505
158.90000 1.56346 -0.16473 0.04873
159.00000 1.51690 -0.30821 -0.00416
159.10000 1.48511 -0.34817 -0.03743
159.20000 1.49880 -0.23786 -0.07266
159.30000 1.48683 -0.01132 0.03086
159.40000 1.58746 0.09849 0.05303
159.50000 1.58947 0.03782 0.04082
159.60000 1.40955 0.07293 -0.03159
159.70000 1.49141 0.10749 0.05064
159.80000 1.53522 0.19266 0.01780
159.90000 1.48440 0.16087 -0.01618
160.00000 1.51195 0.01230 0.00216
160.10000 1.57559 -0.10395 0.04616
160.20000 1.51563 -0.07606 -0.03092
160.30000 1.54518 -0.16535 -0.00334
160.40000 1.50910 -0.07391 -0.02423
160.50000 1.49614 0.32473 0.02382
160.60000 1.52403 0.17779 0.01815
160.70000 1.51939 -0.05575 -0.00526
160.80000 1.44466 -0.16108 -0.03482
160.90000 1.52412 -0.05442 0.02726
161.00000 1.50124 0.06773 -0.04810
161.10000 1.51450 0.00118 -0.00819
161.20000 1.54093 -0.11942 0.00360
161.30000 1.51209 -0.22910 -0.02910
161.40000 1.43756 -0.16841 0.01400
161.50000 1.50865 -0.01521 0.01316
161.60000 1.54298 0.03955 -0.04341
161.70000 1.53833 -0.09891 0.00556
161.80000 1.47718 -0.18533 0.00982
161.90000 1.49216 0.03790 -0.00388
162.00000 1.50277 0.10748 -0.01586
162.10000 1.48478 0.10443 0.02510
162.20000 1.51288 -0.15887 -0.01777
162.30000 1.53193 -0.17957 -0.03404
162.40000 1.48547 0.12889 0.00163
162.50000 1.50661 0.29619 -0.04346
162.60000 1.49821 0.18093 0.03001
162.70000 1.52661 0.06575 0.09108
162.80000 1.54511 -0.01315 0.00706
162.90000 1.49653 0.00055 -0.01275
163.00000 1.46802 -0.04011 -0.00001
163.10000 1.54447 -0.21196 0.09844
163.20000 1.47190 -0.12304 -0.04802
163.30000 1.46997 -0.00073 0.04354
163.40000 1.51246 -0.13638 0.01414
163.50000 1.53660 -0.26179 0.00897
163.60000 1.52561 -0.21699 0.00446
163.70000 1.46650 -0.05047 -0.00385
163.80000 1.48760 0.19516 0.03599
163.90000 1.59184 0.22787 0.01354
164.00000 1.48664 0.23764 0.01559
164.10000 1.50236 0.06378 -0.00302
164.20000 1.56572 -0.01630 0.00285
164.30000 1.43264 -0.00004 0.02622
164.40000 1.53559 0.09217 -0.01520
164.50000 1.54840 0.29148 -0.00529
164.60000 1.50620 0.18034 -0.01526
164.70000 1.52900 0.03583 -0.00516
164.80000 1.53696 0.02399 -0.00654
164.90000 1.48288 0.10960 -0.05812
165.00000 1.53181 -0.01631 0.10349
165.10000 1.55880 -0.13247 -0.03295
165.20000 1.50559 -0.36332 -0.06978
165.30000 1.49222 -0.33190 0.05864
165.40000 1.50925 -0.11418 0.03054
165.50000 1.52288 0.00560 -0.04176
165.60000 1.48995 0.00133 -0.03426
165.70000 1.47514 0.20810 0.02626
165.80000 1.49851 0.12516 -0.03858
165.90000 1.59795 -0.11046 0.02446
166.00000 1.58626 -0.23864 0.02588
166.10000 1.46823 -0.15988 -0.04185
166.20000 1.46921 0.07731 -0.00451
166.30000 1.53428 0.19583 0.03196
166.40000 1.56398 0.20433 -0.03081
166.50000 1.45463 0.07671 0.02104
166.60000 1.51714 -0.00101 0.02806
166.70000 1.51820 0.03171 0.00261
166.80000 1.54683 -0.11743 0.00665
166.90000 1.42014 -0.21842 -0.01598
167.00000 1.56512 -0.08157 -0.02807
167.10000 1.49163 0.15153 -0.03930
167.20000 1.52490 0.29253 0.02207
167.30000 1.54670 0.24230 0.05101
167.40000 1.51876 0.19329 -0.09142
167.50000 1.48535 0.09157 -0.03766
167.60000 1.55761 0.04647 0.01224
167.70000 1.56057 -0.10868 0.01308
167.80000 1.44806 -0.11881 -0.00949
167.90000 1.49823 0.05948 -0.01329
168.00000 1.47830 0.25458 0.02177
168.10000 1.56189 0.31662 0.06403
168.20000 1.48143 0.05920 0.01724
168.30000 1.50903 -0.08868 -0.05665
168.40000 1.55355 0.00183 0.00930
168.50000 1.50365 -0.22433 0.00521
168.60000 1.52321 -0.22530 -0.01180
168.70000 1.49308 0.05239 0.06354
168.80000 1.48066 0.20289 -0.02882
168.90000 1.52712 0.04319 -0.00580
169.00000 1.53303 -0.17894 0.03398
169.10000 1.51686 -0.22510 -0.06654
169.20000 1.45826 -0.32669 0.00556
169.30000 1.51714 -0.11428 0.05616
169.40000 1.54429 0.05532 0.00269
169.50000 1.49662 0.02664 0.01377
169.60000 1.48336 0.19537 -0.01531
169.70000 1.55828 0.14517 0.04870
169.80000 1.52860 -0.09830 0.00246
169.90000 1.53116 -0.09271 -0.03533
170.00000 1.45165 -0.04713 0.03380
170.10000 1.46043 -0.27824 0.03731
170.20000 1.55394 -0.46372 -0.00273
170.30000 1.48674 -0.27345 -0.08454
170.40000 1.51042 0.02638 -0.02000
170.50000 1.52742 0.01427 0.01305
170.60000 1.49619 0.00479 0.01153
170.70000 1.49560 0.26796 -0.04396
170.80000 1.52655 0.33848 -0.06064
170.90000 1.54105 0.09431 0.00249
171.00000 1.49688 -0.12798 0.02348
171.10000 1.49843 -0.19899 -0.03329
171.20000 1.53503 -0.35692 0.01644
171.30000 1.48903 -0.41610 -0.04452
171.40000 1.51223 -0.09776 -0.03434
171.50000 1.46896 -0.01219 0.07559
171.60000 1.57277 -0.14601 -0.02446
171.70000 1.49619 -0.30139 0.00701
171.80000 1.51271 -0.19451 -0.00577
171.90000 1.48114 0.06902 -0.00044
172.00000 1.50381 0.17394 -0.02945
172.10000 1.54751 0.13895 -0.02167
172.20000 1.52148 -0.07552 0.02328
172.30000 1.48728 -0.13771 0.01391
172.40000 1.53529 -0.10494 -0.03534
172.50000 1.55174 -0.11141 0.03834
172.60000 1.52458 -0.02318 0.00932
172.70000 1.48898 0.05236 0.01169
172.80000 1.48482 0.07493 0.03439
172.90000 1.49347 0.13306 -0.04470
173.00000 1.48624 -0.08019 -0.05441
173.10000 1.50650 -0.09005 -0.01786
173.20000 1.48605 -0.10092 0.05103
173.30000 1.55092 -0.18261 -0.00251
173.40000 1.53079 -0.15948 -0.03344
173.50000 1.45477 0.01282 -0.02598
173.60000 1.49592 0.19414 0.01260
173.70000 1.50326 0.16101 0.03326
173.80000 1.51526 0.03828 -0.07597
173.90000 1.52389 0.04708 -0.01314
174.00000 1.46589 -0.07460 0.06222
174.10000 1.54760 -0.03653 -0.04921
174.20000 1.51028 0.09094 0.05862
174.30000 1.46643 0.22847 -0.02968
174.40000 1.49930 0.12397 -0.05792
174.50000 1.53791 0.04891 0.05943
174.60000 1.51572 0.00101 -0.00630
174.70000 1.52188 0.16649 -0.00290
174.80000 1.53686 0.30280 0.02891
174.90000 1.51725 0.12041 -0.02118
175.00000 1.50818 -0.18975 0.00401
175.10000 1.53048 -0.19323 0.03533
175.20000 1.51430 0.00680 0.00479
175.30000 1.51921 0.19996 -0.03538
175.40000 1.52702 0.27905 -0.02226
175.50000 1.50689 0.16921 0.11062
175.60000 1.48536 -0.05169 -0.00898
175.70000 1.48327 -0.24946 -0.04414
175.80000 1.48336 -0.34418 -0.00699
175.90000 1.57252 -0.22144 0.04533
176.00000 1.48657 0.05017 -0.04791
176.10000 1.47946 0.02237 -0.04642
176.20000 1.49072 -0.03578 0.03806
176.30000 1.52940 -0.00820 -0.00771
176.40000 1.49001 0.11739 0.01643
176.50000 1.46891 0.16587 0.02027
176.60000 1.47984 0.26701 -0.03342
176.70000 1.58117 0.13672 0.00122
176.80000 1.46890 0.14094 0.04347
176.90000 1.47433 0.03520 0.01979
177.00000 1.53145 0.01400 0.02432
177.10000 1.55586 -0.22749 -0.00787
177.20000 1.52827 -0.13705 0.03134
177.30000 1.50340 -0.10147 0.00160
177.40000 1.53729 0.03070 -0.06103
177.50000 1.49920 0.23165 -0.00974
177.60000 1.49161 0.08206 0.08459
177.70000 1.52520 0.10138 -0.08888
177.80000 1.50632 0.07971 -0.03979
177.90000 1.50690 0.08748 0.01613
178.00000 1.46934 0.05431 -0.01201
178.10000 1.43065 0.01682 0.00407
178.20000 1.56434 -0.04719 0.04146
178.30000 1.55392 0.02397 -0.02940
178.40000 1.53162 -0.01099 -0.02919
178.50000 1.52154 -0.15125 0.01848
178.60000 1.49876 -0.15738 0.00662
178.70000 1.46176 -0.01596 0.02684
178.80000 1.43907 -0.11541 -0.00012
178.90000 1.53435 -0.03482 0.02218
179.00000 1.50890 -0.02685 0.04131
179.10000 1.42310 0.05146 -0.06411
179.20000 1.52502 0.04838 -0.00206
179.30000 1.54203 -0.00007 0.06571
179.40000 1.44718 -0.04389 -0.03147
179.50000 1.50199 -0.09177 -0.04929
179.60000 1.50774 -0.08423 0.04571
179.70000 1.54589 -0.08804 0.01171
179.80000 1.49408 0.00718 -0.03310
179.90000 1.52082 -0.11399 0.08777
180.00000 1.52718 -0.25313 -0.00707
180.10000 1.47058 -0.25337 0.03926
180.20000 1.49078 -0.29778 -0.02879
180.30000 1.49670 -0.27160 0.08035
180.40000 1.54982 -0.08689 0.04295
180.50000 1.57157 0.02697 -0.01927
180.60000 1.41715 0.06093 -0.06466
180.70000 1.53714 0.01654 0.05853
180.80000 1.51916 -0.05117 0.04593
180.90000 1.46984 -0.00660 -0.03101
181.00000 1.47871 0.16592 -0.01228
181.10000 1.56168 0.04105 0.01029
181.20000 1.54767 -0.01857 0.02023
181.30000 1.53007 0.00020 -0.01612
181.40000 1.51859 -0.07376 0.00381
181.50000 1.47332 0.00387 0.01592
181.60000 1.48096 0.16449 -0.03572
181.70000 1.54946 -0.03361 -0.01813
181.80000 1.47574 -0.03326 0.01075
181.90000 1.48048 0.06574 0.02268
182.00000 1.48404 0.25081 0.01599
182.10000 1.58402 0.17083 -0.02374
182.20000 1.52313 0.11039 -0.02417
182.30000 1.42824 -0.00943 -0.02837
182.40000 1.54439 -0.04970 0.00541
182.50000 1.56715 -0.04697 -0.01961
182.60000 1.50394 0.02913 0.03120
182.70000 1.49774 0.02889 -0.01093
182.80000 1.52584 -0.17216 0.00655
182.90000 1.51103 0.00769 0.08616
183.00000 1.51363 0.10947 -0.04988
183.10000 1.53344 0.12606 -0.00845
183.20000 1.48253 0.07344 -0.01653
183.30000 1.52695 -0.13251 -0.02967
183.40000 1.53790 -0.03498 0.00431
183.50000 1.45745 0.08148 0.01950
183.60000 1.54187 0.05252 -0.08359
183.70000 1.52466 0.05752 0.05441
183.80000 1.47631 0.00349 -0.03377
183.90000 1.49758 0.11519 0.00419
184.00000 1.51596 0.39944 0.05502
184.10000 1.53373 0.24612 0.01978
184.20000 1.57454 -0.24259 -0.01083
184.30000 1.55209 -0.36167 -0.02636
184.40000 1.48399 -0.07824 -0.02147
184.50000 1.47875 -0.09453 0.09302
184.60000 1.51554 -0.15574 -0.00428
184.70000 1.52016 0.10172 -0.07297
184.80000 1.51915 0.29309 0.07241
184.90000 1.50150 0.30054 -0.00314
185.00000 1.49093 0.09101 -0.04841
185.10000 1.51649 0.04269 0.00879
185.20000 1.52369 0.09564 0.00058
185.30000 1.52909 0.15763 -0.04759
185.40000 1.49328 0.13135 0.03505
185.50000 1.46841 0.02114 0.02727
185.60000 1.49876 0.27295 -0.03519
185.70000 1.46314 0.38103 -0.05354
185.80000 1.53055 0.31413 0.08346
185.90000 1.55391 0.01935 -0.01641
186.00000 1.47531 -0.25041 -0.02643
186.10000 1.49000 -0.17928 0.00097
186.20000 1.52754 -0.03064 -0.03166
186.30000 1.49316 -0.01722 0.03479
186.40000 1.53035 -0.07157 -0.00096
186.50000 1.53641 -0.02141 -0.04079
186.60000 1.51325 0.02595 -0.01682
186.70000 1.53737 -0.00339 -0.04570
186.80000 1.50005 0.01221 0.06058
186.90000 1.50163 0.01936 0.03548
187.00000 1.50982 0.06027 -0.05403
187.10000 1.45954 0.13527 -0.00335
187.20000 1.55034 0.06439 0.01714
187.30000 1.49336 0.08966 0.03183
187.40000 1.49568 0.15810 -0.05462
187.50000 1.51356 0.01306 0.01175
187.60000 1.53885 -0.33026 0.07642
187.70000 1.47464 -0.41262 -0.00126
187.80000 1.53306 -0.22644 -0.09982
187.90000 1.52745 -0.03665 0.05121
188.00000 1.51612 -0.06648 0.03570
188.10000 1.48122 -0.13276 -0.03773
188.20000 1.49417 -0.15938 -0.01177
188.30000 1.52736 -0.06001 0.06238
188.40000 1.51029 0.15175 0.00950
188.50000 1.52989 0.06379 -0.07244
188.60000 1.49943 0.06404 0.00871
188.70000 1.52474 -0.02268 -0.00695
188.80000 1.48548 -0.03591 -0.03010
188.90000 1.47890 0.00241 0.08514
189.00000 1.53678 -0.09270 -0.01212
189.10000 1.52093 -0.14578 -0.01360
189.20000 1.51596 -0.17154 0.05421
189.30000 1.50783 -0.36892 -0.00735
189.40000 1.54849 -0.13210 -0.01484
189.50000 1.55327 0.03367 -0.00628
189.60000 1.53561 0.12048 -0.01911
189.70000 1.46568 0.13706 0.00718
189.80000 1.49952 -0.05143 -0.03364
189.90000 1.50748 -0.12658 -0.00559
190.00000 1.48139 0.04536 -0.02071
190.10000 1.53556 0.13932 -0.07539
190.20000 1.54069 0.17213 0.01254
190.30000 1.50818 0.02475 -0.00663
190.40000 1.51527 -0.12764 -0.03631
190.50000 1.50886 -0.11445 0.00383
190.60000 1.52434 -0.08572 0.00321
190.70000 1.50669 -0.17182 -0.02971
190.80000 1.44258 -0.21644 0.01715
190.90000 1.49915 -0.24700 0.02118
191.00000 1.57708 -0.25039 -0.03457
191.10000 1.55598 -0.11816 0.00566
191.20000 1.50857 0.04762 0.02714
191.30000 1.46067 0.15311 0.01974
191.40000 1.52187 0.26672 -0.02925
191.50000 1.54011 0.15843 -0.01128
191.60000 1.50234 -0.07775 0.03538
191.70000 1.46901 -0.21102 -0.01227
191.80000 1.48996 -0.02480 -0.02982
191.90000 1.52163 0.08393 0.04171
192.00000 1.50431 -0.01807 -0.02509
192.10000 1.50521 -0.11282 0.02934
192.20000 1.51739 -0.08694 0.01717
192.30000 1.50752 0.03351 0.03001
192.40000 1.50222 -0.01402 -0.00555
192.50000 1.55008 0.00237 -0.00351
192.60000 1.47443 0.22473 -0.00057
192.70000 1.51756 0.20391 0.02274
192.80000 1.53715 0.00535 0.01131
192.90000 1.51517 -0.14290 -0.01879
193.00000 1.47442 -0.04496 0.02357
193.10000 1.58376 0.05295 -0.00411
193.20000 1.53727 0.15433 0.01127
193.30000 1.53224 0.01623 -0.01698
193.40000 1.47859 -0.21709 0.01015
193.50000 1.53735 -0.13888 -0.00259
193.60000 1.54961 0.04088 0.03228
193.70000 1.49058 -0.02896 -0.00973
193.80000 1.48430 -0.11029 -0.06255
193.90000 1.52055 -0.10380 0.02892
194.00000 1.49630 0.06851 0.00110
194.10000 1.52587 0.07393 -0.01784
194.20000 1.51914 0.04684 0.01709
194.30000 1.46479 0.12986 0.01107
194.40000 1.48858 0.22396 -0.01131
194.50000 1.52864 0.18377 -0.06033
194.60000 1.52510 0.08645 0.02403
194.70000 1.49065 -0.11608 0.02447
194.80000 1.54381 -0.25741 -0.00600
194.90000 1.56564 -0.13072 0.02869
195.00000 1.51128 0.16898 -0.01777
195.10000 1.47259 0.14901 -0.01536
195.20000 1.53154 -0.18269 0.01815
195.30000 1.53514 -0.32844 -0.00612
195.40000 1.59869 -0.24390 -0.02640
195.50000 1.49332 -0.00581 -0.01598
195.60000 1.47520 0.24536 0.04203
195.70000 1.57896 0.25326 0.00899
195.80000 1.56706 -0.01993 -0.10242
195.90000 1.52450 -0.21414 0.01692
196.00000 1.50752 -0.08199 0.04066
196.10000 1.49793 -0.03016 -0.07555
196.20000 1.50427 -0.00814 -0.02013
196.30000 1.48112 0.11052 -0.00159
196.40000 1.53009 0.18576 -0.02529
196.50000 1.53484 0.13835 0.02140
196.60000 1.47793 -0.00168 0.01388
196.70000 1.44999 -0.10448 -0.00696
196.80000 1.55643 -0.11728 -0.02506
196.90000 1.51736 -0.02199 0.02187
197.00000 1.48221 -0.05637 0.00346
197.10000 1.51851 -0.03981 -0.01837
197.20000 1.44650 0.12650 -0.02394
197.30000 1.49811 -0.02902 -0.00047
197.40000 1.46711 -0.16462 0.00799
197.50000 1.54816 -0.21539 -0.01339
197.60000 1.47034 -0.28877 0.02636
197.70000 1.54013 -0.24854 0.01589
197.80000 1.50840 -0.26062 -0.05877
197.90000 1.51167 -0.06701 0.00590
198.00000 1.49977 0.16248 -0.02275
198.10000 1.52506 0.28582 0.03498
198.20000 1.55796 0.33574 -0.04771
198.30000 1.48585 0.24215 0.04089
198.40000 1.52032 0.02177 -0.00055
198.50000 1.50910 -0.06414 -0.05552
198.60000 1.49757 -0.02594 0.04994
198.70000 1.48726 -0.05997 0.04823
198.80000 1.48852 0.13943 -0.00278
198.90000 1.46838 0.19599 0.02919
199.00000 1.50693 0.04492 -0.02070
199.10000 1.47905 0.01524 0.03906
199.20000 1.58687 -0.16500 -0.00254
199.30000 1.52391 -0.21540 0.01254
199.40000 1.47430 -0.07750 0.01540
199.50000 1.54629 -0.06690 0.05983
199.60000 1.47093 0.04136 -0.01206
199.70000 1.44437 0.09095 -0.00255
199.80000 1.51950 0.11752 0.02376
199.90000 1.50638 0.16617 0.05672
200.00000 1.54444 0.10436 -0.02128
200.10000 1.49694 0.06302 -0.01644
200.20000 1.48745 0.14186 0.00810
200.30000 1.50707 0.10344 0.04392
200.40000 1.58579 -0.04765 0.06992
200.50000 1.47795 -0.11473 -0.10459
200.60000 1.48670 -0.03967 -0.01519
200.70000 1.52303 0.09561 0.05871
200.80000 1.50691 -0.08489 0.01091
200.90000 1.53814 -0.05417 0.03453
201.00000 1.51120 -0.02478 0.00909
201.10000 1.50148 -0.15539 0.03795
201.20000 1.50019 -0.26896 -0.00284
201.30000 1.48888 -0.16886 0.01765
201.40000 1.49908 -0.23257 -0.07803
201.50000 1.53208 -0.25745 -0.00745
201.60000 1.48515 -0.10705 0.06633
201.70000 1.51450 0.34850 0.03037
201.80000 1.49433 0.37374 -0.02203
201.90000 1.54306 0.08697 -0.00632
202.00000 1.47662 -0.09859 0.01426
202.10000 1.51546 -0.16874 -0.03591
202.20000 1.54980 0.08617 0.04781
202.30000 1.49670 0.35815 -0.01645
202.40000 1.54876 0.26060 -0.02021
202.50000 1.50810 -0.07237 0.01615
202.60000 1.49165 -0.18105 0.02735
202.70000 1.50971 -0.04293 -0.01821
202.80000 1.45877 0.00318 -0.01784
202.90000 1.47916 0.05359 -0.01790
203.00000 1.51416 -0.04505 0.02066
203.10000 1.51682 0.00768 0.00301
203.20000 1.51626 0.07664 0.00171
203.30000 1.51536 0.08487 -0.01735
203.40000 1.49348 0.08034 -0.00155
203.50000 1.47375 -0.15280 -0.00764
203.60000 1.59199 -0.11919 -0.06516
203.70000 1.51743 -0.06521 0.00878
203.80000 1.51469 -0.20539 0.02957
203.90000 1.53329 -0.16819 0.00226
204.00000 1.49162 -0.01801 -0.01036
204.10000 1.52647 0.19186 -0.00594
204.20000 1.51103 0.27277 0.03097
204.30000 1.48187 -0.11440 -0.01999
204.40000 1.52835 -0.38549 -0.01695
204.50000 1.49290 -0.23120 0.00403
204.60000 1.50582 -0.05122 0.03265
204.70000 1.50078 0.02824 0.01065
204.80000 1.54067 0.06697 -0.00294
204.90000 1.48840 0.10923 0.01853
205.00000 1.50579 0.22963 0.00372
205.10000 1.47967 0.24218 0.00213
205.20000 1.48397 0.23773 -0.00148
205.30000 1.51916 -0.10274 0.02216
205.40000 1.52262 -0.33711 -0.01449
205.50000 1.56019 -0.37521 0.03670
205.60000 1.49581 -0.15254 0.01901
205.70000 1.49320 -0.07451 -0.06149
205.80000 1.52873 -0.05736 -0.03035
205.90000 1.48389 0.19802 0.03467
206.00000 1.54035 0.23772 -0.03964
206.10000 1.55322 0.14819 -0.03482
206.20000 1.48783 0.01510 0.06365
206.30000 1.45687 -0.04127 0.04606
206.40000 1.52616 -0.06142 -0.06215
206.50000 1.53338 -0.07079 -0.03770
206.60000 1.49169 -0.10330 0.05328
206.70000 1.50077 -0.13021 0.04485
206.80000 1.54541 -0.05264 -0.03796
206.90000 1.50272 -0.02533 -0.01040
207.00000 1.46420 0.02906 0.09332
207.10000 1.50860 0.01488 -0.00573
207.20000 1.49171 -0.06716 -0.03065
207.30000 1.49428 -0.23621 0.08806
207.40000 1.50684 -0.13628 -0.01545
207.50000 1.51777 0.16464 0.00105
207.60000 1.50957 0.20013 0.00875
207.70000 1.52244 0.23401 0.00884
207.80000 1.48752 0.22472 -0.05155
207.90000 1.53407 -0.06498 0.03120
208.00000 1.53477 0.01756 -0.00474
208.10000 1.50432 0.23474 0.02925
208.20000 1.50634 0.35599 0.03096
208.30000 1.44959 0.23030 -0.02209
208.40000 1.57062 0.19554 -0.01279
208.50000 1.50872 -0.01158 -0.03803
208.60000 1.43386 -0.01302 -0.03710
208.70000 1.54453 -0.05664 -0.03438
208.80000 1.54579 -0.05588 0.03625
208.90000 1.51964 -0.11416 -0.00857
209.00000 1.51303 -0.25229 0.04650
209.10000 1.49258 -0.15398 -0.03278
209.20000 1.53291 0.04080 0.00214
209.30000 1.47243 0.07354 -0.02413
209.40000 1.52320 0.00296 0.05921
209.50000 1.56295 -0.08052 -0.01783
209.60000 1.44073 -0.00199 -0.00101
209.70000 1.49074 0.02046 -0.01828
209.80000 1.58583 0.00119 0.03077
209.90000 1.53137 0.02181 0.02522
210.00000 1.48507 -0.02927 -0.00698
210.10000 1.51296 -0.15357 -0.01524
210.20000 1.56399 -0.09302 0.04415
210.30000 1.43218 0.11724 -0.01394
210.40000 1.53195 0.22670 -0.06775
210.50000 1.51071 0.08894 0.06248
210.60000 1.53436 0.07898 -0.01958
210.70000 1.47371 0.00063 -0.02789
210.80000 1.48666 0.20143 0.01167
210.90000 1.53278 0.04247 0.00319
211.00000 1.50434 -0.16036 0.00230
211.10000 1.52827 -0.18488 0.03504
211.20000 1.52032 -0.05540 -0.08435
211.30000 1.44670 -0.14083 0.00201
211.40000 1.48741 -0.25603 0.01661
211.50000 1.55146 -0.10329 0.01021
211.60000 1.50062 0.19077 -0.07247
211.70000 1.48220 0.09565 0.00430
211.80000 1.47883 -0.20530 -0.00799
211.90000 1.50869 -0.30065 0.03267
212.00000 1.54260 -0.16302 -0.06871
212.10000 1.53328 0.09139 0.01492
212.20000 1.52953 0.23972 -0.05361
212.30000 1.51875 0.24947 0.03476
212.40000 1.54879 0.21350 -0.00278
212.50000 1.51780 0.10887 -0.05154
212.60000 1.53027 -0.03934 0.14614
212.70000 1.51697 -0.25568 -0.01492
212.80000 1.52264 -0.26342 -0.04479
212.90000 1.45866 -0.28666 -0.00423
213.00000 1.51307 -0.31515 0.01928
213.10000 1.56963 -0.13201 0.01825
213.20000 1.54660 0.10419 0.00701
213.30000 1.41567 0.17952 0.00460
213.40000 1.57445 0.33122 -0.01841
213.50000 1.54406 0.21743 0.01388
213.60000 1.53615 0.19744 -0.04002
213.70000 1.53812 0.13599 0.04012
213.80000 1.49289 -0.09153 0.03333
213.90000 1.50126 -0.27600 -0.03364
214.00000 1.55529 -0.41831 -0.02136
214.10000 1.51992 -0.54783 0.02250
214.20000 1.49769 -0.46277 -0.06319
214.30000 1.50466 -0.33959 -0.04796
214.40000 1.53782 -0.26112 0.00183
214.50000 1.53021 -0.25600 0.05958
214.60000 1.51765 -0.07214 -0.02339
214.70000 1.53235 0.03305 -0.08207
214.80000 1.51363 -0.05867 0.01514
214.90000 1.49582 -0.16826 0.00681
215.00000 1.53898 -0.04811 0.01493
215.10000 1.55321 -0.10763 -0.00435
215.20000 1.49901 0.05439 0.07498
215.30000 1.53452 0.11154 0.00430
215.40000 1.50528 -0.00276 -0.07264
215.50000 1.50340 -0.03122 0.05793
215.60000 1.47434 0.03978 0.00462
215.70000 1.53074 0.09301 -0.03207
215.80000 1.57198 0.03892 0.04038
215.90000 1.56266 0.02815 0.00663
216.00000 1.50724 0.04685 -0.04749
216.10000 1.54013 -0.10615 -0.02701
216.20000 1.46984 -0.07916 -0.00270
216.30000 1.51205 -0.02820 0.09573
216.40000 1.57756 -0.05496 0.00046
216.50000 1.49480 0.07332 -0.07113
216.60000 1.47568 -0.04148 -0.00071
216.70000 1.51722 -0.07038 0.06095
216.80000 1.50497 -0.13724 -0.01587
216.90000 1.52909 0.03248 -0.09634
217.00000 1.54144 0.16513 0.03460
217.10000 1.50454 0.26560 0.03703
217.20000 1.50954 0.12248 -0.02352
217.30000 1.50756 0.03155 0.00291
217.40000 1.54077 -0.04803 -0.00020
217.50000 1.43258 0.07971 -0.03384
217.60000 1.54779 0.02420 -0.03664
217.70000 1.57551 0.12577 0.07697
217.80000 1.49819 0.14261 0.01140
217.90000 1.57240 0.04373 -0.03605
218.00000 1.49549 0.02662 -0.00170
218.10000 1.43444 -0.15627 0.05459
218.20000 1.56788 -0.31028 0.03809
218.30000 1.55432 -0.42278 0.02399
218.40000 1.44666 -0.10299 0.00105
218.50000 1.48330 0.07911 -0.01168
218.60000 1.54141 0.10858 -0.01223
218.70000 1.50121 0.14246 0.01793
218.80000 1.52854 0.05991 0.01195
218.90000 1.60294 0.06484 -0.04252
219.00000 1.48564 0.01348 0.00898
219.10000 1.42768 0.11673 -0.00150
219.20000 1.47448 0.11665 0.08814
219.30000 1.54186 -0.08935 -0.00896
219.40000 1.50741 -0.10655 -0.00959
219.50000 1.50528 0.08615 0.04393
219.60000 1.48440 0.02813 -0.04396
219.70000 1.45395 -0.17213 -0.00093
219.80000 1.49773 -0.25108 0.01822
219.90000 1.49177 -0.16705 -0.05074
220.00000 1.52492 -0.07739 0.02654
220.10000 1.50382 0.03973 0.00083
220.20000 1.52761 0.32070 0.01372
220.30000 1.46265 0.35289 -0.04186
220.40000 1.47409 0.23945 0.01036
220.50000 1.53577 0.22189 -0.03754
220.60000 1.47746 -0.04849 0.03922
220.70000 1.52848 -0.16370 -0.04832
220.80000 1.52024 -0.07812 0.00083
220.90000 1.45252 0.13727 0.05598
221.00000 1.55563 0.17853 -0.02360
221.10000 1.52253 0.19474 -0.08868
221.20000 1.44728 0.29107 0.07085
221.30000 1.49599 0.34417 -0.00527
221.40000 1.57712 0.26252 -0.02565
221.50000 1.54264 0.01191 0.00856
221.60000 1.52118 -0.25428 -0.02621
221.70000 1.48061 -0.24266 0.09562
221.80000 1.50589 0.01911 -0.06980
221.90000 1.52214 0.04304 -0.01167
222.00000 1.49520 -0.25588 0.01921
222.10000 1.51618 -0.17828 0.00975
222.20000 1.55025 -0.12717 -0.03367
222.30000 1.52143 -0.22499 -0.02966
222.40000 1.56636 -0.02160 -0.00697
222.50000 1.52351 0.16085 0.04345
222.60000 1.43370 0.21346 0.00277
222.70000 1.45251 0.20809 -0.09254
222.80000 1.47637 0.13256 0.01932
222.90000 1.54530 0.02089 0.00140
223.00000 1.53730 0.00220 -0.08729
223.10000 1.47301 0.04072 -0.00148
223.20000 1.52720 0.07234 0.06352
223.30000 1.52244 0.08650 -0.01135
223.40000 1.53730 0.05493 -0.03330
223.50000 1.51607 0.22897 0.02984
223.60000 1.46407 0.10336 -0.00863
223.70000 1.48009 -0.05256 0.01687
223.80000 1.54254 -0.08384 0.03826
223.90000 1.55785 0.01559 -0.01963
224.00000 1.52183 0.05435 0.04177
224.10000 1.51932 -0.05503 -0.04872
224.20000 1.53575 0.15827 0.00852
224.30000 1.48729 -0.06815 0.06522
224.40000 1.47828 -0.21946 -0.03262
224.50000 1.55661 -0.00935 -0.00747
224.60000 1.53478 0.05036 0.01648
224.70000 1.49121 0.09244 -0.00338
224.80000 1.48374 -0.04759 -0.03972
224.90000 1.57839 -0.12262 0.02738
225.00000 1.51721 -0.21317 -0.00870
225.10000 1.52290 -0.17760 -0.05245
225.20000 1.58029 -0.11813 0.02968
225.30000 1.48915 -0.17485 -0.01440
225.40000 1.50297 -0.22679 0.02499
225.50000 1.51173 -0.23255 0.03528
225.60000 1.53837 0.14028 0.02937
225.70000 1.45061 0.22593 -0.06331
225.80000 1.50941 0.05067 0.00904
225.90000 1.47673 -0.02929 0.04610
226.00000 1.55386 -0.09781 -0.02237
226.10000 1.47033 -0.16955 -0.00586
226.20000 1.52775 -0.20824 0.04628
226.30000 1.53884 -0.29245 -0.03149
226.40000 1.49253 -0.13293 -0.00738
226.50000 1.47427 0.02605 0.01630
226.60000 1.52786 0.01904 -0.03700
226.70000 1.53693 0.11601 0.00069
226.80000 1.50067 0.04674 0.00266
226.90000 1.48399 0.11110 -0.03894
227.00000 1.54263 0.28057 0.01336
227.10000 1.52194 0.13580 -0.02233
227.20000 1.52320 0.02845 -0.00584
227.30000 1.52283 -0.02516 0.03719
227.40000 1.51073 0.06333 -0.04103
227.50000 1.50415 0.05440 0.04057
227.60000 1.52780 0.07517 0.02660
227.70000 1.46733 0.00541 0.04773
227.80000 1.54242 0.00733 -0.03623
227.90000 1.55117 -0.12091 -0.01286
228.00000 1.49932 0.08265 0.01046
228.10000 1.56595 0.01417 -0.01366
228.20000 1.51293 -0.01435 -0.01983
228.30000 1.47599 -0.06251 0.04008
228.40000 1.50264 -0.04398 -0.03371
228.50000 1.58482 -0.02373 -0.04306
228.60000 1.51742 -0.02062 0.01197
228.70000 1.45677 -0.07822 0.01870
228.80000 1.43455 -0.04507 0.00862
228.90000 1.58247 -0.07373 0.00554
229.00000 1.45713 -0.11494 0.03698
229.10000 1.51719 -0.04343 0.01414
229.20000 1.55287 0.04694 0.00010
229.30000 1.52535 0.15656 -0.00987
229.40000 1.53934 0.07686 -0.00042
229.50000 1.47732 0.10856 -0.03457
229.60000 1.49028 0.17879 -0.00983
229.70000 1.60719 0.24399 0.06645
229.80000 1.52363 0.01175 -0.02540
229.90000 1.45598 -0.22344 -0.01957
230.00000 1.46222 -0.37174 0.05646
230.10000 1.52427 -0.46715 -0.05976
230.20000 1.57927 -0.26039 -0.02799
230.30000 1.52806 0.04605 0.01628
230.40000 1.50872 0.08342 0.00491
230.50000 1.47021 -0.01851 -0.00818
230.60000 1.49740 -0.10502 -0.01632
230.70000 1.57465 -0.06232 0.01108
230.80000 1.47932 -0.04720 -0.01045
230.90000 1.49195 -0.04279 -0.03637
231.00000 1.51814 -0.12954 -0.01741
231.10000 1.51124 -0.05302 0.01655
231.20000 1.52316 -0.15777 -0.00458
231.30000 1.50690 -0.09894 -0.04338
231.40000 1.54966 -0.05431 0.01768
231.50000 1.47087 0.03595 -0.00687
231.60000 1.46408 0.13791 -0.03397
231.70000 1.51018 -0.02737 -0.00996
231.80000 1.52206 -0.04964 -0.01838
231.90000 1.51973 0.02084 0.02722
232.00000 1.49741 -0.00080 0.01840
232.10000 1.49428 -0.08684 0.00766
232.20000 1.48145 0.08394 -0.01484
232.30000 1.55762 0.00367 -0.01250
232.40000 1.52929 -0.23483 0.01329
232.50000 1.46650 -0.16715 0.00155
232.60000 1.55752 0.02098 -0.00610
232.70000 1.54139 0.03039 0.02421
232.80000 1.47440 -0.18933 -0.04352
232.90000 1.45130 -0.28220 0.07505
233.00000 1.56143 -0.21061 0.01793
233.10000 1.49198 0.03680 0.00991
233.20000 1.49441 0.18416 0.00008
233.30000 1.51506 0.11626 0.01345
233.40000 1.54658 0.22178 -0.02947
233.50000 1.51264 0.22180 -0.04189
233.60000 1.50852 0.16167 0.01614
233.70000 1.55049 0.19764 0.01656
233.80000 1.45443 0.11434 -0.03819
233.90000 1.53660 -0.05154 -0.02978
234.00000 1.56846 0.08098 0.06618
234.10000 1.48784 0.24114 0.00943
234.20000 1.49596 0.21690 -0.04394
234.30000 1.53674 0.18013 0.05744
234.40000 1.53796 0.23142 0.00006
234.50000 1.46767 0.11944 -0.01560
234.60000 1.43035 0.00117 0.04334
234.70000 1.55588 -0.19939 -0.00442
234.80000 1.55501 -0.12293 -0.02809
234.90000 1.48983 0.02459 -0.00951
235.00000 1.53150 0.09752 -0.00263
235.10000 1.51493 0.16371 0.01582
235.20000 1.49184 0.20073 0.00010
235.30000 1.44728 0.13964 -0.04289
235.40000 1.47037 0.06638 0.02771
235.50000 1.53734 0.01938 -0.01428
235.60000 1.54905 -0.11069 0.04148
235.70000 1.43217 -0.07775 -0.02100
235.80000 1.52259 -0.04411 -0.01936
235.90000 1.50870 0.08998 0.06612
236.00000 1.47975 0.15725 0.02243
236.10000 1.47191 -0.07632 -0.03536
236.20000 1.51819 -0.26330 -0.02925
236.30000 1.51594 -0.10531 0.01544
236.40000 1.52511 0.05305 0.03239
236.50000 1.43540 0.01800 -0.01521
236.60000 1.54576 -0.02943 -0.02946
236.70000 1.52729 0.18703 -0.00766
236.80000 1.46400 0.29636 0.03681
236.90000 1.48286 0.28291 -0.02244
237.00000 1.52404 0.00155 -0.05189
237.10000 1.53121 -0.28749 0.02171
237.20000 1.46293 -0.41466 -0.00285
237.30000 1.53139 -0.40842 -0.07636
237.40000 1.53810 -0.21836 0.02327
237.50000 1.50776 0.04470 0.04922
237.60000 1.58489 0.29137 -0.03407
237.70000 1.54112 0.23141 0.03738
237.80000 1.53123 0.16470 -0.07948
237.90000 1.47270 0.07367 0.05743
238.00000 1.45390 -0.03379 -0.02893
238.10000 1.53863 -0.11752 -0.04882
238.20000 1.57131 0.00842 0.03032
238.30000 1.46384 0.16709 0.10107
238.40000 1.47973 0.14394 -0.04799
238.50000 1.52419 0.03759 -0.03179
238.60000 1.46857 0.01837 0.01227
238.70000 1.45583 0.04322 0.05311
238.80000 1.52034 0.02844 -0.02469
238.90000 1.52316 0.04911 -0.00335
239.00000 1.50978 -0.07354 -0.02796
239.10000 1.48858 -0.23965 0.01503
239.20000 1.48514 -0.14554 0.02066
239.30000 1.49217 0.15198 -0.03595
239.40000 1.50703 0.18496 0.07886
239.50000 1.51289 0.18998 -0.01139
239.60000 1.46552 -0.13012 0.00562
239.70000 1.50097 -0.23012 0.03141
239.80000 1.51909 -0.26654 0.01622
239.90000 1.48771 -0.13799 -0.05130
240.00000 1.43030 0.12435 -0.03828
240.10000 1.53178 0.36715 -0.00393
240.20000 1.52789 0.48546 0.00471
240.30000 1.53511 0.31642 0.00274
240.40000 1.51210 0.02951 -0.02104
240.50000 1.50148 -0.09331 0.00832
240.60000 1.50013 -0.22132 0.05150
240.70000 1.52096 -0.08154 0.00270
240.80000 1.52855 0.00938 -0.02171
240.90000 1.46643 0.19550 -0.02970
241.00000 1.48517 0.28989 -0.07943
241.10000 1.44146 0.12491 0.07906
241.20000 1.53256 -0.10253 0.01342
241.30000 1.57483 -0.33877 -0.09166
241.40000 1.51472 -0.17904 0.00622
241.50000 1.47055 -0.10828 0.06015
241.60000 1.48985 -0.23907 -0.03090
241.70000 1.50424 -0.23269 -0.01773
241.80000 1.55040 -0.17703 -0.05898
241.90000 1.52560 -0.11060 0.01017
242.00000 1.57041 -0.05701 0.06192
242.10000 1.49216 -0.10765 0.01056
242.20000 1.46086 0.12157 -0.01366
242.30000 1.52609 0.24894 0.01846
242.40000 1.51890 0.16670 0.04172
242.50000 1.47202 0.05998 0.04260
242.60000 1.50245 0.01922 -0.04215
242.70000 1.57522 0.16818 -0.01134
242.80000 1.48560 0.16934 -0.02499
242.90000 1.47172 0.05535 0.01045
243.00000 1.55658 -0.06255 -0.00439
243.10000 1.51140 -0.07776 0.01555
243.20000 1.49854 -0.09414 0.00708
243.30000 1.52340 -0.18520 -0.03091
243.40000 1.50196 -0.16275 0.04921
243.50000 1.47181 -0.12171 -0.06955
243.60000 1.56776 -0.09401 -0.00472
243.70000 1.53540 0.11993 0.07008
243.80000 1.46717 0.27325 0.03249
243.90000 1.45796 0.09352 -0.05108
244.00000 1.51634 -0.10342 -0.06760
244.10000 1.53401 -0.26319 0.04392
244.20000 1.53981 -0.18863 0.01535
244.30000 1.52783 -0.06117 -0.03748
244.40000 1.48850 0.02497 0.05316
244.50000 1.48921 -0.08247 -0.03954
244.60000 1.60428 0.05387 -0.05859
244.70000 1.53735 0.16668 0.00113
244.80000 1.46385 0.07113 0.01561
244.90000 1.47727 0.16415 -0.03935
245.00000 1.54028 0.16491 0.05332
245.10000 1.49700 -0.00131 -0.01554
245.20000 1.54191 -0.03536 0.03667
245.30000 1.46533 0.15907 -0.00924
245.40000 1.48460 0.18151 0.00334
245.50000 1.58007 0.08220 0.03176
245.60000 1.52879 0.11171 -0.00996
245.70000 1.45524 -0.01294 0.03577
245.80000 1.54279 -0.15462 0.02455
245.90000 1.56582 -0.02126 -0.01324
246.00000 1.48082 -0.02206 0.03185
246.10000 1.53700 0.02454 -0.05053
246.20000 1.55642 -0.13034 0.00236
246.30000 1.53591 -0.02449 0.01463
246.40000 1.50406 0.06328 -0.01089
246.50000 1.47081 0.31703 -0.02072
246.60000 1.56648 0.32819 0.04999
246.70000 1.49623 0.14889 -0.01756
246.80000 1.48008 0.16583 -0.03331
246.90000 1.50167 0.11090 0.01666
247.00000 1.48188 0.00724 0.05053
247.10000 1.49827 0.05278 -0.02751
247.20000 1.52787 0.10980 -0.00671
247.30000 1.49869 -0.05025 -0.00942
247.40000 1.51643 -0.17336 0.02008
247.50000 1.56604 -0.00175 0.02725
247.60000 1.52333 0.03666 -0.02397
247.70000 1.46319 0.00695 -0.01962
247.80000 1.51836 0.03867 0.06453
247.90000 1.48553 0.18965 0.00093
248.00000 1.53517 0.30651 -0.01894
248.10000 1.52578 0.10212 -0.04105
248.20000 1.54629 -0.15431 0.05386
248.30000 1.54108 -0.13478 0.02289
248.40000 1.44602 0.03990 -0.00704
248.50000 1.51376 0.00438 -0.01154
248.60000 1.52938 0.01564 0.07404
248.70000 1.45392 0.09209 -0.02514
248.80000 1.56874 0.07867 -0.01551
248.90000 1.54468 -0.05642 0.03937
249.00000 1.50714 0.14652 0.03847
249.10000 1.49772 0.21495 0.02008
249.20000 1.46121 0.13690 -0.00988
249.30000 1.48895 -0.02856 -0.02445
249.40000 1.49796 -0.00465 -0.01883
249.50000 1.52155 0.10582 0.02844
249.60000 1.53496 0.19541 -0.06956
249.70000 1.54046 0.20155 0.03785
249.80000 1.51668 0.14796 0.03420
249.90000 1.52307 -0.01227 0.01818
250.00000 1.47958 -0.06138 0.04547
250.10000 1.50697 -0.04535 -0.03240
250.20000 1.51560 0.01533 -0.01038
250.30000 1.54014 0.14340 -0.02685
250.40000 1.54168 0.25760 0.00191
250.50000 1.46428 0.08114 0.00039
250.60000 1.51189 -0.18401 -0.01000
250.70000 1.52336 -0.29983 -0.00115
250.80000 1.56006 -0.20677 0.03127
250.90000 1.55573 -0.18648 -0.04848
251.00000 1.50628 -0.18345 -0.01885
251.10000 1.47833 -0.17218 0.03617
251.20000 1.58967 0.04377 0.01657
251.30000 1.48607 0.20711 -0.02960
251.40000 1.44271 0.20366 -0.05004
251.50000 1.52451 0.19355 -0.01881
251.60000 1.54599 0.11379 0.06750
251.70000 1.51710 -0.04978 0.05631
251.80000 1.50238 -0.24555 -0.02188
251.90000 1.46261 -0.14351 0.01943
252.00000 1.59102 -0.06979 -0.01060
252.10000 1.45028 -0.03725 0.07478
252.20000 1.48879 -0.13825 0.03136
252.30000 1.53571 -0.22202 -0.10725
252.40000 1.52841 -0.08768 0.00638
252.50000 1.43261 0.17125 0.07471
252.60000 1.61828 0.18208 -0.02812
252.70000 1.53587 0.17548 -0.09761
252.80000 1.45683 0.04911 -0.02729
252.90000 1.51411 -0.06039 0.05182
253.00000 1.45365 0.00332 0.02113
253.10000 1.51608 0.00176 -0.01502
253.20000 1.55018 0.03393 -0.05795
253.30000 1.49722 -0.04342 -0.00759
253.40000 1.49989 0.10834 0.04647
253.50000 1.38733 0.03791 -0.02108
253.60000 1.54364 -0.08344 -0.07822
253.70000 1.54300 0.03240 0.02862
253.80000 1.47390 0.15461 0.05908
253.90000 1.44367 0.01509 -0.03640
254.00000 1.50069 -0.09633 0.02471
254.10000 1.44424 -0.03553 -0.03389
254.20000 1.56894 -0.06289 0.01013
254.30000 1.57859 -0.10332 0.00241
254.40000 1.48073 -0.01570 -0.04889
254.50000 1.52498 0.08950 -0.00826
254.60000 1.53779 0.03916 0.00032
254.70000 1.50831 -0.16944 0.07669
254.80000 1.49594 -0.40945 -0.01736
254.90000 1.52379 -0.26862 -0.00256
255.00000 1.52158 -0.15168 0.02470
255.10000 1.50374 -0.02926 -0.05662
255.20000 1.45494 0.10301 -0.02107
255.30000 1.54243 0.10698 0.04961
255.40000 1.55810 -0.13875 0.00730
255.50000 1.49200 -0.22569 0.02490
255.60000 1.46636 -0.14401 0.00169
255.70000 1.54397 -0.05553 -0.03378
255.80000 1.53271 0.02173 -0.02387
255.90000 1.50409 -0.03986 -0.03506
256.00000 1.50786 0.08726 0.00510
256.10000 1.50802 -0.07366 0.04987
256.20000 1.49166 -0.26874 -0.02214
256.30000 1.52023 -0.23937 -0.01160
256.40000 1.53498 -0.01072 -0.01164
256.50000 1.53792 0.18924 0.01571
256.60000 1.51957 0.26627 -0.00367
256.70000 1.46679 0.03406 0.05554
256.80000 1.44691 -0.04254 -0.00784
256.90000 1.50936 0.16686 -0.02032
257.00000 1.56773 0.25456 0.02223
257.10000 1.52571 0.17335 0.10205
257.20000 1.50043 -0.00252 -0.05790
257.30000 1.52630 -0.28902 -0.02079
257.40000 1.53204 -0.15513 0.00515
257.50000 1.50415 -0.08050 0.00888
257.60000 1.53161 -0.18217 0.05338
257.70000 1.54256 0.02388 -0.04795
257.80000 1.52588 0.23042 -0.02273
257.90000 1.48598 0.30642 0.08060
258.00000 1.53110 0.07173 -0.02988
258.10000 1.52981 -0.04301 -0.00120
258.20000 1.56190 -0.10993 -0.00665
258.30000 1.46710 -0.13979 -0.00767
258.40000 1.40954 0.02489 -0.00600
258.50000 1.53326 0.37753 0.03960
258.60000 1.54989 0.30106 -0.02565
258.70000 1.54335 -0.02529 -0.01114
258.80000 1.43084 -0.17320 -0.05637
258.90000 1.56195 -0.13389 0.02474
259.00000 1.59108 0.01650 0.02052
259.10000 1.50472 0.11705 0.01187
259.20000 1.52000 -0.11207 0.02955
259.30000 1.50619 -0.27113 -0.03351
259.40000 1.55433 -0.16762 -0.01033
259.50000 1.51789 -0.15028 -0.02312
259.60000 1.43697 0.04543 0.02491
259.70000 1.48933 0.10536 -0.02473
259.80000 1.56951 0.03379 -0.00282
259.90000 1.49910 0.05684 0.03560
260.00000 1.43457 0.08341 0.00495
260.10000 1.51457 -0.02859 -0.03122
260.20000 1.55503 -0.06086 -0.06565
260.30000 1.58136 0.05755 -0.00650
260.40000 1.51678 0.19506 0.05154
260.50000 1.45619 0.06693 -0.02068
260.60000 1.50405 0.11864 -0.04713
260.70000 1.52183 -0.03555 -0.00630
260.80000 1.50015 -0.11108 -0.01521
260.90000 1.53474 -0.29743 -0.00018
261.00000 1.50507 -0.30712 0.00382
261.10000 1.51997 -0.12437 0.01574
261.20000 1.49079 -0.12011 0.00946
261.30000 1.49671 -0.20225 -0.02616
261.40000 1.53510 0.00743 0.02540
261.50000 1.53772 0.19502 0.02734
261.60000 1.45206 0.17243 -0.04782
261.70000 1.55482 -0.04657 0.01779
261.80000 1.50691 0.15075 0.04608
261.90000 1.54189 0.30082 -0.05589
262.00000 1.54298 -0.08605 0.01992
262.10000 1.47085 -0.12232 -0.03256
262.20000 1.54636 0.00439 0.00680
262.30000 1.51270 0.02365 0.00330
262.40000 1.45015 -0.15331 -0.00638
262.50000 1.52971 -0.22075 -0.01203
262.60000 1.48424 0.07661 0.02538
262.70000 1.52853 0.40846 0.02915
262.80000 1.52710 0.37834 -0.04125
262.90000 1.40953 -0.13446 0.00657
263.00000 1.52199 -0.46717 0.06045
263.10000 1.53415 -0.37334 0.02580
263.20000 1.47456 -0.20143 -0.02668
263.30000 1.48384 -0.04553 -0.00602
263.40000 1.50513 0.00542 0.00097
263.50000 1.49963 0.00639 -0.02230
263.60000 1.48531 -0.16085 -0.01694
263.70000 1.52524 -0.16370 0.01668
263.80000 1.55989 -0.12487 -0.04612
263.90000 1.48270 0.06286 -0.03319
264.00000 1.51400 0.10857 -0.00398
264.10000 1.54703 0.05805 0.03011
264.20000 1.48712 -0.08721 0.03151
264.30000 1.52385 -0.21761 -0.00379
264.40000 1.56172 -0.18826 -0.05291
264.50000 1.48479 0.06707 0.04629
264.60000 1.43566 0.15932 -0.02358
264.70000 1.48803 0.04814 -0.00472
264.80000 1.56422 0.02836 -0.00520
264.90000 1.49696 0.08049 -0.00528
265.00000 1.43630 0.05319 -0.01586
265.10000 1.51684 -0.05499 0.01124
265.20000 1.57050 0.04273 -0.01294
265.30000 1.52418 0.15453 0.06940
265.40000 1.44953 0.18334 -0.00183
265.50000 1.56308 0.15084 -0.09925
265.60000 1.54220 0.06636 0.05841
265.70000 1.44298 -0.00684 0.04463
265.80000 1.51565 0.07544 -0.02326
265.90000 1.57621 0.12635 0.02646
266.00000 1.44489 0.07778 -0.03484
266.10000 1.50221 0.16065 -0.00010
266.20000 1.51850 0.22417 -0.02773
266.30000 1.51677 0.14733 0.08513
266.40000 1.52688 -0.15533 -0.00475
266.50000 1.43728 -0.19425 -0.02010
266.60000 1.51542 -0.05908 0.04092
266.70000 1.50014 -0.02058 -0.06174
266.80000 1.51714 0.09200 -0.04833
266.90000 1.54928 0.37762 0.02623
267.00000 1.53355 0.29484 0.01525
267.10000 1.48111 0.08973 -0.06759
267.20000 1.54857 -0.11597 0.01447
267.30000 1.51339 -0.21169 -0.00547
267.40000 1.49235 -0.18648 0.04871
267.50000 1.47635 -0.14931 -0.02920
267.60000 1.53216 -0.13812 -0.01311
267.70000 1.54270 -0.13963 0.03828
267.80000 1.52156 -0.03786 -0.01325
267.90000 1.49869 -0.12154 -0.01666
268.00000 1.48418 -0.12647 0.04087
268.10000 1.49070 0.02623 -0.00935
268.20000 1.50122 0.02261 -0.00989
268.30000 1.49716 0.08411 0.01157
268.40000 1.49951 0.12440 -0.02481
268.50000 1.56453 0.01802 -0.00657
268.60000 1.52190 0.03367 0.03460
268.70000 1.48220 0.08525 0.06991
268.80000 1.49128 0.06619 -0.07114
268.90000 1.51248 0.08277 -0.05286
269.00000 1.46680 -0.02315 0.08353
269.10000 1.54232 -0.07426 0.06932
269.20000 1.57356 0.00355 -0.10508
269.30000 1.48722 0.07759 0.00549
269.40000 1.52377 0.13141 0.03381
269.50000 1.51282 -0.02487 0.05061
269.60000 1.51847 -0.00727 0.01236
269.70000 1.48487 0.04314 -0.05321
269.80000 1.49449 0.19215 0.01769
269.90000 1.51435 0.29370 -0.03987
270.00000 1.48342 0.54629 0.02556
270.10000 1.54446 0.38322 0.04231
270.20000 1.50741 0.11793 0.01758
270.30000 1.49368 0.19674 -0.08389
270.40000 1.57258 0.16926 0.01952
270.50000 1.50075 0.17033 0.02065
270.60000 1.48542 0.03408 -0.04400
270.70000 1.49306 -0.05922 -0.05110
270.80000 1.56771 -0.13314 0.00459
270.90000 1.55538 -0.15824 -0.02083
271.00000 1.49871 -0.25023 0.02261
271.10000 1.50048 -0.20443 -0.02670
271.20000 1.49037 -0.01533 -0.03060
271.30000 1.49989 0.11207 0.05428
271.40000 1.55850 0.10227 -0.00959
271.50000 1.50441 0.11312 -0.04869
271.60000 1.45409 0.02235 -0.00186
271.70000 1.58083 -0.07342 -0.01912
271.80000 1.52356 -0.04986 0.00837
271.90000 1.50881 -0.02949 -0.01231
272.00000 1.52308 0.08941 0.02404
272.10000 1.46867 0.18828 0.09120
272.20000 1.52561 0.11271 -0.06686
272.30000 1.52237 0.11359 -0.03646
272.40000 1.52826 0.06956 0.06033
272.50000 1.53212 -0.11631 -0.04082
272.60000 1.48635 -0.02486 -0.04152
272.70000 1.48268 0.00598 0.08496
272.80000 1.51567 0.06140 -0.00590
272.90000 1.51171 0.09620 0.01682
273.00000 1.50356 0.03410 0.05841
273.10000 1.55484 -0.00372 -0.04651
273.20000 1.49136 -0.11138 -0.01461
273.30000 1.49231 -0.07289 0.00907
273.40000 1.50479 0.14146 0.00060
273.50000 1.53479 0.01302 0.02302
273.60000 1.51038 -0.20009 -0.02680
273.70000 1.51044 -0.10567 -0.00329
273.80000 1.54676 0.11760 0.08059
273.90000 1.48760 0.17626 0.02172
274.00000 1.52412 0.02195 -0.03426
274.10000 1.52973 -0.15782 0.03333
274.20000 1.51011 -0.10961 0.00529
274.30000 1.52645 0.07662 -0.01633
274.40000 1.53636 0.14123 0.03761
274.50000 1.44767 -0.04718 0.01289
274.60000 1.45753 0.01471 -0.06519
274.70000 1.56652 0.23544 0.02639
274.80000 1.50222 0.30770 0.01265
274.90000 1.48258 0.11539 -0.03311
275.00000 1.46492 -0.26232 0.04740
275.10000 1.51342 -0.42524 0.00463
275.20000 1.54596 -0.19953 -0.09184
275.30000 1.47165 -0.14219 0.07145
275.40000 1.48926 -0.16707 -0.04930
275.50000 1.49117 -0.24636 -0.01811
275.60000 1.48083 -0.16858 0.05871
275.70000 1.51555 -0.11044 -0.00452
275.80000 1.51388 -0.16159 -0.02852
275.90000 1.50498 -0.06252 0.01206
276.00000 1.49136 0.01916 0.02996
276.10000 1.51524 0.16759 -0.00314
276.20000 1.50671 0.25847 0.02066
276.30000 1.47989 0.26483 0.02824
276.40000 1.51975 0.01004 -0.04195
276.50000 1.47822 -0.04551 -0.02251
276.60000 1.55526 0.05412 0.02781
276.70000 1.55039 -0.14144 -0.02868
276.80000 1.47276 -0.25248 -0.00868
276.90000 1.49884 0.05129 0.01872
277.00000 1.46727 0.19107 0.03735
277.10000 1.48754 0.19932 -0.03583
277.20000 1.57230 0.13923 -0.06719
277.30000 1.54764 0.04724 0.03734
277.40000 1.41339 0.00216 -0.01019
277.50000 1.47510 -0.00095 -0.05080
277.60000 1.64532 0.02836 0.00110
277.70000 1.53555 0.16564 0.05581
277.80000 1.50046 -0.04982 -0.03937
277.90000 1.51366 -0.28946 0.01515
278.00000 1.51743 -0.34579 0.04159
278.10000 1.48144 -0.27109 -0.01060
278.20000 1.46967 -0.28416 -0.04042
278.30000 1.55471 -0.27938 0.01391
278.40000 1.47674 -0.32933 0.03746
278.50000 1.56166 -0.28333 -0.02303
278.60000 1.61327 -0.34251 -0.08534
278.70000 1.46109 -0.05487 0.01569
278.80000 1.48296 0.01907 0.03250
278.90000 1.53924 -0.02321 0.00370
279.00000 1.45788 -0.07188 -0.03298
279.10000 1.50362 0.07180 -0.04930
279.20000 1.54736 0.13850 -0.01301
279.30000 1.53888 -0.13134 -0.00531
279.40000 1.49149 -0.22975 -0.01411
279.50000 1.51735 -0.16128 0.02101
279.60000 1.53169 -0.25913 0.01315
279.70000 1.50316 -0.39561 -0.06727
279.80000 1.49803 -0.16697 0.05455
279.90000 1.51293 0.05043 -0.04071
280.00000 1.49191 0.11077 0.03723
280.10000 1.54168 0.07649 0.02109
280.20000 1.57958 0.02654 -0.03181
280.30000 1.55420 0.03341 -0.01492
280.40000 1.49547 -0.07339 0.01296
280.50000 1.42649 -0.03560 -0.03080
280.60000 1.49433 -0.02804 0.00648
280.70000 1.57505 0.04067 0.02589
280.80000 1.51102 0.20075 0.00638
280.90000 1.52247 0.29320 0.02784
281.00000 1.52624 0.29666 -0.05040
281.10000 1.51894 0.10537 0.04568
281.20000 1.49702 -0.10368 0.00324
281.30000 1.45834 -0.13941 -0.06313
281.40000 1.44548 0.01389 0.07979
281.50000 1.55862 0.34500 0.01466
281.60000 1.53482 0.29495 -0.01364
281.70000 1.47960 0.10563 -0.00532
281.80000 1.55446 -0.08421 0.01484
281.90000 1.56048 -0.19179 -0.01005
282.00000 1.42515 -0.23746 0.02051
282.10000 1.53390 -0.07104 0.03835
282.20000 1.57854 0.06507 0.00759
282.30000 1.49416 0.02418 -0.00678
282.40000 1.51698 -0.07666 0.00090
282.50000 1.53276 -0.20214 0.05674
282.60000 1.47446 -0.12857 -0.06355
282.70000 1.48496 -0.06157 -0.01704
282.80000 1.51243 -0.15739 0.01857
282.90000 1.52500 -0.14592 0.03116
283.00000 1.49848 0.02714 0.03096
283.10000 1.48676 -0.07521 0.02944
283.20000 1.49782 -0.22561 -0.02345
283.30000 1.53921 -0.08278 -0.05575
283.40000 1.54920 0.15827 0.01302
283.50000 1.50879 0.03503 0.03512
283.60000 1.44452 -0.27102 0.01045
283.70000 1.54908 -0.28182 0.01127
283.80000 1.52048 -0.10809 -0.06504
283.90000 1.51738 -0.03683 0.04258
284.00000 1.52554 -0.09932 0.03875
284.10000 1.51384 -0.04585 -0.07929
284.20000 1.44270 -0.12034 0.02775
284.30000 1.52032 -0.28233 0.02106
284.40000 1.54736 -0.26328 -0.02787
284.50000 1.49888 -0.01757 0.00351
284.60000 1.46989 0.34008 0.01217
284.70000 1.51488 0.31193 0.00996
284.80000 1.59774 0.06785 0.01506
284.90000 1.47864 -0.25465 -0.04107
285.00000 1.45654 -0.38488 -0.00674
285.10000 1.51521 -0.17405 0.00032
285.20000 1.52653 0.03425 -0.02016
285.30000 1.55940 0.07037 -0.02166
285.40000 1.48598 0.03232 -0.01844
285.50000 1.46235 -0.14037 0.03947
285.60000 1.52686 -0.08133 0.00454
285.70000 1.52538 -0.00492 -0.03340
285.80000 1.44209 -0.02735 -0.00986
285.90000 1.54565 -0.04439 -0.01506
286.00000 1.59082 0.11222 0.00420
286.10000 1.50449 0.13082 0.00839
286.20000 1.55708 0.07920 0.01380
286.30000 1.50189 0.08082 -0.03359
286.40000 1.54509 0.07192 0.03386
286.50000 1.48017 0.00894 -0.02384
286.60000 1.50929 -0.06294 0.01511
286.70000 1.53150 -0.01569 -0.01038
286.80000 1.52013 0.05985 0.00016
286.90000 1.50465 -0.02126 -0.00993
287.00000 1.52230 -0.12610 0.07001
287.10000 1.47243 -0.22281 -0.00050
287.20000 1.52399 -0.04330 -0.04285
287.30000 1.54486 0.13826 -0.01169
287.40000 1.49801 -0.04994 0.01971
287.50000 1.49125 0.11870 0.02526
287.60000 1.52149 0.31698 -0.04507
287.70000 1.47677 0.25446 0.00437
287.80000 1.52559 0.08165 0.05470
287.90000 1.48835 -0.08512 -0.01871
288.00000 1.51982 -0.09080 -0.03793
288.10000 1.54517 0.01501 0.03173
288.20000 1.53662 -0.01351 -0.01920
288.30000 1.48858 -0.05939 -0.03078
288.40000 1.51158 0.15163 -0.01558
288.50000 1.52346 0.32873 0.07139
288.60000 1.47046 0.20421 -0.02732
288.70000 1.57639 0.02146 -0.01532
288.80000 1.50971 -0.13521 0.00720
288.90000 1.46654 0.00791 0.08908
289.00000 1.50035 0.22128 -0.05000
289.10000 1.55070 0.12237 -0.08805
289.20000 1.43957 -0.17328 0.04539
289.30000 1.54678 -0.22300 0.09547
289.40000 1.53060 -0.07240 -0.05150
289.50000 1.53564 -0.03475 -0.04438
289.60000 1.51658 -0.18890 -0.03726
289.70000 1.53352 -0.26530 0.02512
289.80000 1.52596 -0.20490 0.01232
289.90000 1.51399 -0.18429 -0.09363
290.00000 1.44995 -0.17822 0.01358
290.10000 1.48210 -0.30110 -0.03447
290.20000 1.51776 -0.20527 -0.06239
290.30000 1.56376 -0.02863 -0.00831
290.40000 1.53220 0.04419 0.06348
290.50000 1.50366 -0.09071 0.00677
290.60000 1.46457 -0.09470 -0.04319
290.70000 1.49527 0.18107 0.04223
290.80000 1.49686 0.26670 -0.06046
290.90000 1.49652 0.15537 -0.00342
291.00000 1.55122 -0.08354 -0.01565
291.10000 1.49947 -0.25788 -0.00541
291.20000 1.48764 -0.28475 0.02752
291.30000 1.52023 -0.21577 0.00505
291.40000 1.48317 0.14724 -0.00840
291.50000 1.53320 0.18232 0.00064
291.60000 1.50316 0.07369 -0.03610
291.70000 1.46824 -0.03917 -0.00127
291.80000 1.56368 -0.04290 0.06663
291.90000 1.52731 -0.14133 -0.03094
292.00000 1.49141 -0.34362 -0.04456
292.10000 1.45879 -0.45661 0.00044
292.20000 1.49198 -0.42648 0.05343
292.30000 1.49967 -0.19676 0.01150
292.40000 1.57452 -0.06413 -0.01562
292.50000 1.50891 0.01491 0.00100
292.60000 1.51286 -0.04022 0.03050
292.70000 1.54510 -0.04841 -0.00634
292.80000 1.49389 0.07771 -0.05736
292.90000 1.52036 0.08583 0.05801
293.00000 1.52033 0.23150 0.01852
293.10000 1.48403 0.17931 -0.02660
293.20000 1.53537 0.22198 -0.00932
293.30000 1.50508 0.06378 -0.04351
293.40000 1.49016 -0.24921 0.00858
293.50000 1.51630 -0.08327 0.00070
293.60000 1.53385 0.21008 0.02052
293.70000 1.49336 0.17170 -0.01439
293.80000 1.52474 0.07409 -0.06185
293.90000 1.52255 0.01383 -0.05035
294.00000 1.52528 -0.17992 0.03755
294.10000 1.48104 -0.10885 0.02892
294.20000 1.52362 -0.00425 -0.03875
294.30000 1.51197 0.17435 0.01266
294.40000 1.53202 0.23920 0.05545
294.50000 1.43726 0.17104 0.00915
294.60000 1.45987 -0.00892 0.01015
294.70000 1.56434 -0.05525 -0.06935
294.80000 1.53406 -0.04651 0.02421
294.90000 1.49742 0.02609 0.03497
295.00000 1.53226 0.04042 -0.02857
295.10000 1.52516 0.01006 0.04275
295.20000 1.52037 0.27748 0.06156
295.30000 1.50929 0.39062 -0.03100
295.40000 1.49018 0.23188 0.00087
295.50000 1.48822 -0.02829 0.07091
295.60000 1.57080 0.07875 -0.00924
295.70000 1.55315 0.13295 0.00123
295.80000 1.50645 0.19343 -0.01105
295.90000 1.42334 0.16725 -0.01150
296.00000 1.49922 0.22707 0.02766
296.10000 1.48668 0.22724 0.00365
296.20000 1.50983 0.14552 0.04482
296.30000 1.50887 0.10971 -0.09561
296.40000 1.53617 0.05467 0.00766
296.50000 1.53348 0.13193 0.02374
296.60000 1.49099 0.08485 -0.00327
296.70000 1.49817 -0.12890 -0.01224
296.80000 1.47619 -0.14253 0.03712
296.90000 1.53187 -0.08069 -0.00806
297.00000 1.49438 0.01407 -0.01869
297.10000 1.51660 0.14163 -0.01718
297.20000 1.51199 0.14954 -0.01795
297.30000 1.50155 -0.02538 -0.01668
297.40000 1.53060 -0.17530 -0.01147
297.50000 1.46226 -0.25234 -0.01016
297.60000 1.58026 -0.12278 -0.01301
297.70000 1.54575 0.14212 -0.04692
297.80000 1.47200 0.18636 0.02709
297.90000 1.50676 0.24301 -0.03532
298.00000 1.53387 0.08513 0.03298
298.10000 1.49114 -0.08108 0.04899
298.20000 1.54660 -0.26002 -0.05485
298.30000 1.58915 -0.21022 -0.01192
298.40000 1.46511 0.00410 0.08590
298.50000 1.52564 0.08836 -0.02265
298.60000 1.59515 0.03759 -0.03203
298.70000 1.55925 -0.17789 0.04938
298.80000 1.50965 0.03494 0.01541
298.90000 1.45410 0.15058 -0.05009
299.00000 1.51313 0.16695 0.02484
299.10000 1.54117 0.03225 0.04711
299.20000 1.54891 -0.07358 0.00263
299.30000 1.49523 0.03187 -0.00168
299.40000 1.51647 0.07280 0.02961
299.50000 1.54895 -0.01604 -0.01692
299.60000 1.50629 -0.11208 0.01136
299.70000 1.47170 -0.14225 -0.01536
299.80000 1.51216 -0.14279 0.02044
299.90000 1.50182 0.05278 -0.03282
300.00000 1.55026 -0.06133 -0.01081
300.10000 1.51944 -0.16505 0.05314
300.20000 1.54855 -0.17270 -0.01723
300.30000 1.53836 -0.13178 -0.00105
300.40000 1.41424 0.12464 0.04119
300.50000 1.53690 0.40525 -0.03712
300.60000 1.52677 0.17815 -0.00107
300.70000 1.51228 0.04158 -0.04379
300.80000 1.52479 -0.00965 0.01199
300.90000 1.52580 -0.13388 0.00065
301.00000 1.50553 -0.12410 -0.00671
301.10000 1.47081 -0.19515 0.01409
301.20000 1.49850 -0.03735 0.03463
301.30000 1.53623 -0.12083 -0.04474
301.40000 1.47739 -0.24624 0.00038
301.50000 1.50304 -0.16087 0.03190
301.60000 1.50328 -0.12545 -0.03754
301.70000 1.51191 -0.10347 0.04067
301.80000 1.55196 -0.08923 0.02584
301.90000 1.53490 0.00647 -0.02368
302.00000 1.53144 0.10511 0.01773
302.10000 1.47733 0.11503 0.03701
302.20000 1.54567 0.01434 -0.04510
302.30000 1.56499 -0.08232 -0.00745
302.40000 1.51663 0.01223 0.07833
302.50000 1.46279 0.09408 -0.04483
302.60000 1.46473 -0.02525 0.00040
302.70000 1.52471 -0.13824 0.05293
302.80000 1.54664 -0.21030 -0.03513
302.90000 1.51119 -0.02641 0.03103
303.00000 1.48708 -0.00491 -0.05582
303.10000 1.49622 -0.07077 -0.00074
303.20000 1.48234 -0.21937 0.05886
303.30000 1.53429 -0.18194 -0.06289
303.40000 1.52400 -0.12033 0.01815
303.50000 1.49939 -0.17394 -0.01448
303.60000 1.51656 -0.15852 -0.02948
303.70000 1.53552 -0.36927 0.04597
303.80000 1.55945 -0.32617 0.00499
303.90000 1.50355 -0.24060 0.02416
304.00000 1.47404 0.02483 -0.02729
304.10000 1.48076 0.01675 -0.00147
304.20000 1.55389 -0.01791 -0.01448
304.30000 1.55252 0.01894 0.00645
304.40000 1.55419 -0.05409 -0.02352
304.50000 1.53939 -0.02332 0.02088
304.60000 1.45751 -0.02213 -0.06630
304.70000 1.56416 -0.10979 -0.01830
304.80000 1.51147 -0.00883 0.01844
304.90000 1.44680 0.09694 0.01743
305.00000 1.55681 0.03741 -0.02209
305.10000 1.56167 -0.03833 -0.00170
305.20000 1.49339 -0.01112 -0.02107
305.30000 1.47913 0.02485 -0.03788
305.40000 1.49826 -0.04761 -0.01172
305.50000 1.48708 -0.23201 -0.01803
305.60000 1.52971 -0.31575 -0.01973
305.70000 1.50158 -0.22950 0.04413
305.80000 1.54011 -0.19768 0.01307
305.90000 1.48162 -0.04190 0.03185
306.00000 1.47107 0.22234 -0.05745
306.10000 1.53281 0.36364 0.07883
306.20000 1.54352 0.13228 0.03335
306.30000 1.43125 -0.05495 -0.01266
306.40000 1.50093 -0.10677 -0.01610
306.50000 1.52509 -0.03123 -0.02197
306.60000 1.43974 0.21550 0.01380
306.70000 1.47803 0.19101 0.01363
306.80000 1.55533 0.08593 -0.00571
306.90000 1.52649 0.02857 -0.00455
307.00000 1.46956 -0.11803 0.05618
307.10000 1.49902 -0.34582 -0.02182
307.20000 1.53218 -0.38557 0.02466
307.30000 1.40474 -0.35078 0.03017
307.40000 1.51815 -0.23435 -0.04468
307.50000 1.57784 -0.07452 0.03383
307.60000 1.52017 0.00371 -0.02149
307.70000 1.48020 -0.01857 -0.06481
307.80000 1.54475 0.09901 0.05260
307.90000 1.49439 0.19706 -0.00979
308.00000 1.53760 0.36327 -0.01833
308.10000 1.48412 0.23411 -0.02359
308.20000 1.48562 -0.09806 -0.03787
308.30000 1.53739 -0.42745 -0.01503
308.40000 1.50197 -0.20881 0.05471
308.50000 1.45897 0.14063 -0.01119
308.60000 1.51365 0.35490 -0.00567
308.70000 1.53823 0.30314 -0.03516
308.80000 1.51309 -0.07826 -0.05403
308.90000 1.48192 -0.18126 0.04411
309.00000 1.49922 -0.18012 0.01242
309.10000 1.55065 -0.09568 0.00483
309.20000 1.52451 0.00638 -0.03927
309.30000 1.58312 0.01908 -0.00648
309.40000 1.47610 0.18677 -0.01478
309.50000 1.50137 0.23956 0.05806
309.60000 1.49732 0.20185 -0.08122
309.70000 1.49565 0.14602 0.01669
309.80000 1.60065 0.17481 0.05430
309.90000 1.53403 -0.03115 -0.01202
310.00000 1.52089 -0.02907 -0.03952
310.10000 1.48222 -0.08035 -0.03322
310.20000 1.51488 -0.05121 -0.01520
310.30000 1.49579 -0.09167 0.02336
310.40000 1.50508 -0.06018 -0.03767
310.50000 1.51325 0.16053 -0.02082
310.60000 1.55794 0.01575 -0.00938
310.70000 1.43780 0.00931 0.00254
310.80000 1.53148 0.18127 -0.06229
310.90000 1.51795 0.27650 0.04845
311.00000 1.52258 0.23816 0.02578
311.10000 1.52454 0.00561 -0.07205
311.20000 1.54206 -0.01089 -0.07439
311.30000 1.51522 0.01409 0.03755
311.40000 1.51752 -0.10151 0.02309
311.50000 1.52986 -0.11494 0.01872
311.60000 1.51745 0.00397 0.00929
311.70000 1.48255 -0.03315 0.03901
311.80000 1.52831 0.01590 -0.04986
311.90000 1.50676 -0.18397 0.01412
312.00000 1.53294 -0.04606 -0.00788
312.10000 1.52807 -0.02227 0.04893
312.20000 1.47450 -0.00739 -0.06872
312.30000 1.45588 0.10401 0.01565
312.40000 1.45718 0.20476 -0.03725
312.50000 1.51886 0.26771 0.06507
312.60000 1.47417 0.14700 0.08195
312.70000 1.51124 0.06004 -0.10423
312.80000 1.56279 -0.00733 -0.02667
312.90000 1.49341 -0.17011 0.06375
313.00000 1.50045 -0.16915 -0.00488
313.10000 1.48037 0.06339 0.00851
313.20000 1.51564 0.03319 0.02702
313.30000 1.55290 -0.02937 -0.08441
313.40000 1.53303 -0.09191 -0.04639
313.50000 1.44913 0.01088 0.00676
313.60000 1.52830 0.10938 0.02011
313.70000 1.48557 0.11640 0.01092
313.80000 1.48853 -0.02371 -0.04430
313.90000 1.53795 -0.03434 0.04687
314.00000 1.46735 -0.05047 -0.03629
314.10000 1.45988 0.00130 0.00716
314.20000 1.54914 0.07165 0.00129
314.30000 1.48755 0.28511 0.05284
314.40000 1.51105 0.15955 -0.00064
314.50000 1.51884 -0.05779 -0.04147
314.60000 1.52506 -0.19506 0.02345
314.70000 1.51073 -0.17720 0.02528
314.80000 1.45155 -0.37770 0.02800
314.90000 1.54115 -0.37007 -0.04824
315.00000 1.55692 -0.29154 0.04955
315.10000 1.51461 -0.05582 -0.02322
315.20000 1.50062 0.15408 0.03378
315.30000 1.54306 0.23127 0.04824
315.40000 1.48819 0.00705 -0.05957
315.50000 1.48460 -0.29970 -0.04920
315.60000 1.58720 -0.19323 -0.02642
315.70000 1.47754 -0.20075 -0.03511
315.80000 1.53601 -0.30224 -0.00561
315.90000 1.50441 -0.14237 0.04652
316.00000 1.44281 -0.13714 -0.04790
316.10000 1.48819 -0.22705 -0.02327
316.20000 1.53870 -0.18820 0.03341
316.30000 1.54481 -0.19644 -0.00047
316.40000 1.53571 -0.05853 -0.00653
316.50000 1.49145 0.04873 0.05038
316.60000 1.51612 0.18085 -0.04946
316.70000 1.56141 0.06469 0.00809
316.80000 1.51881 0.01709 -0.01750
316.90000 1.49717 0.09282 -0.01884
317.00000 1.53967 0.13574 0.01366
317.10000 1.48190 0.25054 0.02804
317.20000 1.49327 0.04154 -0.00889
317.30000 1.53514 -0.18064 0.05279
317.40000 1.51358 -0.11150 0.02921
317.50000 1.49829 0.04680 -0.04096
317.60000 1.50303 0.09702 0.01594
317.70000 1.48995 0.03404 0.10540
317.80000 1.50439 0.02474 -0.01174
317.90000 1.51143 -0.06388 0.01113
318.00000 1.52510 -0.07184 -0.02557
318.10000 1.54361 -0.01952 0.02882
318.20000 1.46390 0.34963 -0.08280
318.30000 1.47295 0.42926 0.02367
318.40000 1.50797 0.07877 0.04402
318.50000 1.51294 -0.22513 0.02342
318.60000 1.56062 -0.46152 0.03751
318.70000 1.48658 -0.40224 -0.03086
318.80000 1.43721 -0.17686 0.04695
318.90000 1.50940 -0.02041 0.02761
319.00000 1.56322 0.02692 -0.04778
319.10000 1.52851 0.08322 0.03334
319.20000 1.50356 0.22175 -0.01594
319.30000 1.52202 0.09766 -0.04699
319.40000 1.47104 0.03991 -0.05445
319.50000 1.52756 0.17382 0.03574
319.60000 1.56614 0.09498 0.06167
319.70000 1.45179 0.04834 -0.02396
319.80000 1.42143 0.07727 -0.00148
319.90000 1.59872 0.06615 -0.01182
320.00000 1.57288 -0.05376 0.05041
320.10000 1.44505 0.01778 -0.00255
320.20000 1.51124 0.07906 -0.03024
320.30000 1.52361 -0.02324 0.06034
320.40000 1.52695 -0.09405 -0.04851
320.50000 1.47363 -0.24614 -0.03282
320.60000 1.53507 -0.26832 0.01392
320.70000 1.47887 -0.26886 0.05165
320.80000 1.56329 -0.12191 -0.00042
320.90000 1.47614 0.08245 -0.06546
321.00000 1.48982 0.01586 -0.02843
321.10000 1.50860 -0.15856 0.06377
321.20000 1.54203 -0.13117 0.01349
321.30000 1.49230 -0.02132 0.00906
321.40000 1.53981 -0.01902 0.01263
321.50000 1.51741 0.03151 0.01380
321.60000 1.51452 -0.01169 0.02638
321.70000 1.47709 -0.00673 -0.03320
321.80000 1.52114 0.00935 -0.00308
321.90000 1.55998 0.05445 -0.00004
322.00000 1.45385 -0.01021 0.05309
322.10000 1.50216 -0.02670 0.06978
322.20000 1.50976 -0.05700 -0.07733
322.30000 1.55368 -0.03328 -0.09538
322.40000 1.52484 -0.20156 0.06376
322.50000 1.51707 -0.35035 0.03645
322.60000 1.50522 -0.36219 0.02890
322.70000 1.54185 -0.05592 -0.04075
322.80000 1.52955 0.25314 -0.00684
322.90000 1.44669 0.15415 -0.01071
323.00000 1.52451 -0.08363 0.03288
323.10000 1.47443 -0.13529 0.00653
323.20000 1.51494 -0.33145 -0.05891
323.30000 1.57106 -0.33856 0.06989
323.40000 1.53996 -0.33403 0.08922
323.50000 1.50311 -0.36875 -0.00985
323.60000 1.50734 -0.10424 0.00877
323.70000 1.49373 0.08704 -0.06953
323.80000 1.58131 -0.03789 0.11578
323.90000 1.49570 -0.08808 0.03824
324.00000 1.46246 -0.06031 -0.05090
324.10000 1.49457 0.15231 0.01567
324.20000 1.58819 0.25402 0.03701
324.30000 1.56039 0.08206 -0.09915
324.40000 1.47651 -0.14553 -0.00086
324.50000 1.51122 -0.33168 0.04817
324.60000 1.55555 -0.30682 -0.00972
324.70000 1.50950 -0.17791 0.08734
324.80000 1.50748 -0.05283 -0.03956
324.90000 1.47853 -0.03308 0.04487
325.00000 1.52872 -0.04046 0.00071
325.10000 1.53966 0.14600 -0.02166
325.20000 1.49317 0.26366 0.06635
325.30000 1.49224 0.07179 0.02788
325.40000 1.49263 -0.20320 0.00108
325.50000 1.51837 -0.23258 0.00867
325.60000 1.42999 -0.01128 -0.01137
325.70000 1.49824 0.14298 0.06471
325.80000 1.50048 0.07465 -0.00530
325.90000 1.48064 0.12528 0.07444
326.00000 1.58595 0.03716 -0.01472
326.10000 1.53333 0.03922 -0.03872
326.20000 1.49129 0.17635 0.02098
326.30000 1.49384 0.05862 0.03348
326.40000 1.46115 0.02432 0.00678
326.50000 1.57621 0.05384 -0.00448
326.60000 1.55265 0.06845 0.02050
326.70000 1.48908 -0.09839 -0.05303
326.80000 1.47932 -0.26039 0.01655
326.90000 1.48617 -0.37169 0.00666
327.00000 1.50630 -0.39483 -0.05140
327.10000 1.57742 0.02531 0.06718
327.20000 1.52618 0.19842 0.01080
327.30000 1.48748 0.05837 -0.02080
327.40000 1.45293 -0.00179 -0.00524
327.50000 1.45328 -0.10747 -0.00830
327.60000 1.59846 -0.25932 -0.02798
327.70000 1.57644 -0.16203 0.05666
327.80000 1.43272 -0.03596 0.00702
327.90000 1.53819 0.04805 -0.01835
328.00000 1.54353 0.09495 -0.00155
328.10000 1.48978 0.03321 0.03544
328.20000 1.48867 0.10977 0.04559
328.30000 1.50810 0.19136 -0.02260
328.40000 1.57974 0.17903 0.00835
328.50000 1.54864 0.18293 -0.00000
328.60000 1.42910 0.15464 -0.02559
328.70000 1.50748 0.07310 -0.04765
328.80000 1.55639 -0.00609 0.01574
328.90000 1.53830 0.04732 -0.04290
329.00000 1.50296 0.00273 0.01395
329.10000 1.43861 -0.02357 0.07111
329.20000 1.51523 0.01394 -0.07111
329.30000 1.49603 0.08840 -0.00650
329.40000 1.53263 0.19241 0.06702
329.50000 1.53369 0.17008 -0.02520
329.60000 1.51236 0.07786 0.01096
329.70000 1.52549 -0.12054 -0.01173
329.80000 1.45146 -0.11281 0.06964
329.90000 1.46484 -0.14250 -0.00045
330.00000 1.50700 -0.19395 -0.01509
330.10000 1.52884 -0.06544 0.03315
330.20000 1.48041 -0.10965 0.01127
330.30000 1.47929 -0.09195 0.00798
330.40000 1.52854 0.17827 0.03624
330.50000 1.53407 0.36634 -0.08106
330.60000 1.49822 0.31087 0.03286
330.70000 1.47121 0.07873 0.04396
330.80000 1.52159 0.11812 0.01754
330.90000 1.52271 0.12905 -0.00901
331.00000 1.49420 0.16459 0.01340
331.10000 1.56116 -0.06714 0.00113
331.20000 1.51899 -0.09817 0.02078
331.30000 1.53398 -0.09128 0.04347
331.40000 1.47486 0.12628 -0.01443
331.50000 1.49014 0.26156 -0.03486
331.60000 1.49497 0.24076 0.01015
331.70000 1.47106 0.10820 -0.01369
331.80000 1.48430 -0.20568 -0.00430
331.90000 1.52160 -0.25656 0.04986
332.00000 1.50494 -0.09289 -0.04426
332.10000 1.45279 0.08310 -0.06830
332.20000 1.48683 -0.06284 0.01420
332.30000 1.53750 -0.08183 0.01515
332.40000 1.49280 0.04883 -0.00585
332.50000 1.53355 -0.12040 0.00953
332.60000 1.53900 -0.22474 0.00868
332.70000 1.45992 -0.27339 -0.02809
332.80000 1.49799 -0.19546 0.07131
332.90000 1.51348 0.14180 0.04322
333.00000 1.52268 0.25588 0.02496
333.10000 1.52127 0.08834 -0.01809
333.20000 1.53163 0.02183 -0.06608
333.30000 1.53003 -0.11941 0.03354
333.40000 1.49265 -0.34308 -0.01320
333.50000 1.45304 -0.26141 -0.07228
333.60000 1.53012 -0.11171 -0.02785
333.70000 1.54783 -0.09024 0.00918
333.80000 1.48866 -0.16960 -0.02245
333.90000 1.49730 -0.21818 0.02731
334.00000 1.43073 -0.09118 0.05310
334.10000 1.57132 -0.04321 -0.00929
334.20000 1.48076 -0.09423 -0.03040
334.30000 1.48078 0.06691 -0.00444
334.40000 1.57651 0.20598 -0.01907
334.50000 1.50227 0.18599 0.01922
334.60000 1.49719 0.01363 0.04779
334.70000 1.49197 -0.01746 0.01971
334.80000 1.53687 -0.09668 -0.03216
334.90000 1.54460 -0.05569 0.02759
335.00000 1.50357 -0.03373 0.01692
335.10000 1.48415 -0.06232 -0.02138
335.20000 1.50890 -0.15598 0.01403
335.30000 1.49050 -0.09096 0.01249
335.40000 1.54712 -0.01034 -0.02635
335.50000 1.56281 0.07247 -0.01626
335.60000 1.53022 0.24424 -0.03353
335.70000 1.43624 0.14711 0.02385
335.80000 1.53586 -0.00146 -0.02401
335.90000 1.58683 -0.03069 -0.02678
336.00000 1.47886 0.09347 0.00497
336.10000 1.51305 0.18661 -0.03686
336.20000 1.53847 0.17704 0.01093
336.30000 1.53603 0.10878 0.02060
336.40000 1.53363 -0.14700 0.01124
336.50000 1.50339 -0.01315 0.02222
336.60000 1.46514 0.27149 -0.02908
336.70000 1.54358 0.34155 -0.01790
336.80000 1.55513 0.13729 -0.03582
336.90000 1.49008 -0.05181 -0.01346
337.00000 1.48660 -0.06658 -0.00500
337.10000 1.59890 0.01410 -0.00946
337.20000 1.47610 0.12897 0.04410
337.30000 1.48950 0.06506 -0.00659
337.40000 1.54194 0.00596 -0.08329
337.50000 1.53518 -0.01579 0.04103
337.60000 1.52289 -0.14979 -0.01858
337.70000 1.44590 0.02804 -0.02592
337.80000 1.51649 0.00060 -0.05602
337.90000 1.51816 -0.24411 -0.00195
338.00000 1.52394 -0.26341 0.02166
338.10000 1.52865 -0.28110 0.03197
338.20000 1.53200 -0.12283 -0.00029
338.30000 1.46130 0.00527 -0.00627
338.40000 1.48191 0.00170 -0.01131
338.50000 1.54064 -0.17355 -0.02280
338.60000 1.59681 -0.16153 0.02836
338.70000 1.48956 0.05409 0.04005
338.80000 1.46459 0.29857 -0.07302
338.90000 1.55005 0.31281 -0.04993
339.00000 1.51786 0.24825 0.02488
339.10000 1.54704 0.24214 0.00073
339.20000 1.51850 0.14726 -0.05297
339.30000 1.51347 0.07602 0.04559
339.40000 1.48617 0.18362 0.01484
339.50000 1.50914 0.15266 -0.01721
339.60000 1.52822 0.10232 0.01359
339.70000 1.42180 0.01785 0.01536
339.80000 1.50873 -0.19237 -0.02309
339.90000 1.53097 -0.26586 -0.01195
340.00000 1.51033 -0.23606 -0.02319
340.10000 1.51160 -0.21722 -0.03906
340.20000 1.50400 -0.19710 0.02736
340.30000 1.53052 -0.18302 -0.07446
340.40000 1.43605 -0.24603 -0.02638
340.50000 1.53409 -0.17091 0.01401
340.60000 1.50779 0.09902 -0.04333
340.70000 1.50531 0.19839 -0.01602
340.80000 1.55116 0.18263 0.03924
340.90000 1.48853 0.13720 -0.04007
341.00000 1.48603 -0.06889 -0.07250
341.10000 1.51103 -0.15233 -0.00546
341.20000 1.56603 -0.09463 0.06416
341.30000 1.52151 -0.17760 0.02611
341.40000 1.51279 0.09460 -0.02179
341.50000 1.48575 0.23592 -0.01759
341.60000 1.48731 0.13980 0.02397
341.70000 1.50060 -0.02674 0.00564
341.80000 1.52314 -0.07025 -0.01063
341.90000 1.39312 0.04579 -0.01290
342.00000 1.54425 0.09673 0.04182
342.10000 1.53722 0.20454 0.03794
342.20000 1.46334 0.19623 -0.02729
342.30000 1.49325 0.01598 -0.03510
342.40000 1.54477 -0.14140 0.01221
342.50000 1.52079 -0.19575 0.03702
342.60000 1.44767 0.14672 -0.00694
342.70000 1.45597 0.44666 -0.04796
342.80000 1.52256 0.51759 0.00026
342.90000 1.52046 0.28237 -0.00792
343.00000 1.52490 0.06402 0.02158
343.10000 1.49778 -0.13199 -0.07389
343.20000 1.48754 0.10670 0.01192
343.30000 1.49543 0.16635 0.02550
343.40000 1.49516 0.17480 -0.02521
343.50000 1.49678 0.09466 0.03607
343.60000 1.48845 0.00263 -0.05205
343.70000 1.50987 -0.11174 -0.02610
343.80000 1.49339 -0.14659 0.03519
343.90000 1.47200 -0.01694 0.02500
344.00000 1.46926 0.18543 -0.06318
344.10000 1.55175 0.23401 0.01443
344.20000 1.50125 -0.01348 0.07074
344.30000 1.48910 -0.08458 0.03668
344.40000 1.55566 -0.20705 -0.08243
344.50000 1.46300 -0.35729 -0.01369
344.60000 1.43760 -0.22033 0.03083
344.70000 1.51559 -0.16238 0.03157
344.80000 1.51731 -0.08028 0.01147
344.90000 1.42208 0.01193 0.02161
345.00000 1.52328 0.01766 -0.00411
345.10000 1.54895 0.02277 -0.03060
345.20000 1.55380 0.09992 -0.04029
345.30000 1.45758 0.12478 0.01627
345.40000 1.53248 0.16239 0.00484
345.50000 1.52356 0.19525 0.02492
345.60000 1.54229 0.11677 -0.03341
345.70000 1.55157 0.04432 -0.00860
345.80000 1.45934 0.03778 0.06438
345.90000 1.53056 0.06485 -0.04497
346.00000 1.46633 0.01999 -0.04070
346.10000 1.45385 0.04500 0.05291
346.20000 1.49885 -0.05477 0.00474
346.30000 1.52571 -0.20933 -0.02096
346.40000 1.53436 -0.08344 0.02868
346.50000 1.49625 0.16017 0.05943
346.60000 1.50636 0.19171 0.02659
346.70000 1.53956 0.11737 0.03285
346.80000 1.49768 -0.25458 -0.06254
346.90000 1.54012 -0.41426 0.00759
347.00000 1.45251 -0.29920 -0.02014
347.10000 1.52922 -0.06558 0.00585
347.20000 1.52350 0.24414 -0.03413
347.30000 1.53290 0.23284 0.01046
347.40000 1.47659 0.11550 0.05398
347.50000 1.45575 0.00559 0.00687
347.60000 1.51519 0.08706 -0.03586
347.70000 1.52822 0.25351 -0.02551
347.80000 1.53087 0.13289 0.03296
347.90000 1.49905 0.08214 0.01259
348.00000 1.54545 -0.04933 -0.00178
348.10000 1.55910 -0.01329 -0.06849
348.20000 1.50609 -0.00712 0.05487
348.30000 1.46667 -0.15891 -0.01538
348.40000 1.45863 -0.13169 0.02097
348.50000 1.58746 -0.09573 0.01726
348.60000 1.50460 0.14337 -0.06371
348.70000 1.45008 0.23062 0.02429
348.80000 1.54106 0.11630 0.02672
348.90000 1.52723 0.00666 -0.00248
349.00000 1.53246 -0.09026 0.00444
349.10000 1.49925 -0.10599 -0.00953
349.20000 1.46524 -0.23582 0.02634
349.30000 1.54264 -0.16849 0.02074
349.40000 1.51402 -0.48109 0.03644
349.50000 1.45257 -0.63516 -0.02498
349.60000 1.49975 -0.33252 -0.03956
349.70000 1.50618 0.10124 0.04404
349.80000 1.49696 0.30390 -0.03171
349.90000 1.52563 -0.01215 0.00642
350.00000 1.50989 -0.41277 0.01804
350.10000 1.49830 -0.46810 -0.00780
350.20000 1.47047 -0.26318 0.03123
350.30000 1.51716 -0.05955 -0.01151
350.40000 1.53980 -0.09029 -0.03265
350.50000 1.48291 -0.09184 0.04094
350.60000 1.48029 -0.22925 -0.00227
350.70000 1.53838 -0.05845 -0.01628
350.80000 1.58323 0.36265 -0.04250
350.90000 1.49078 0.43933 0.04047
351.00000 1.48902 0.16766 0.04073
351.10000 1.47177 0.03367 -0.01613
351.20000 1.52034 -0.08547 -0.00664
351.30000 1.48916 -0.19946 0.00748
351.40000 1.48546 -0.19221 -0.01417
351.50000 1.56060 -0.22272 0.00243
351.60000 1.52572 -0.04650 -0.00367
351.70000 1.43400 -0.01967 0.06725
351.80000 1.52305 -0.09342 -0.04287
351.90000 1.56164 -0.18156 0.00172
352.00000 1.47627 -0.07839 0.04837
352.10000 1.51693 -0.03542 -0.03437
352.20000 1.48676 0.05350 -0.03989
352.30000 1.53021 -0.00688 0.00851
352.40000 1.54663 -0.22715 0.02567
352.50000 1.49498 -0.17849 0.03666
352.60000 1.49348 0.06028 -0.02757
352.70000 1.53304 0.17040 -0.03315
352.80000 1.54292 -0.06887 -0.03867
352.90000 1.53576 -0.04480 0.04410
353.00000 1.44453 -0.03147 -0.01239
353.10000 1.59256 -0.08252 -0.00312
353.20000 1.51147 -0.10682 0.00160
353.30000 1.46278 0.03852 0.01319
353.40000 1.46197 0.09396 0.00093
353.50000 1.52876 0.10741 -0.03029
353.60000 1.55240 0.15527 0.06636
353.70000 1.54787 0.01741 -0.04713
353.80000 1.50818 -0.22042 0.01668
353.90000 1.50863 -0.00427 0.02885
354.00000 1.47573 0.10591 -0.01620
354.10000 1.51641 0.16422 -0.01021
354.20000 1.57048 0.40643 -0.00998
354.30000 1.51225 0.40865 -0.00404
354.40000 1.49105 0.11356 0.03981
354.50000 1.50333 -0.20996 -0.04354
354.60000 1.52415 -0.17840 -0.00931
354.70000 1.48128 -0.06461 -0.02417
354.80000 1.51953 0.01366 0.01837
354.90000 1.54008 -0.30476 0.00227
355.00000 1.51136 -0.49603 -0.03576
355.10000 1.53295 -0.28589 0.00541
355.20000 1.50610 -0.03664 0.00819
355.30000 1.50170 0.03749 0.05259
355.40000 1.48961 0.02920 -0.05917
355.50000 1.55539 -0.04071 -0.06015
355.60000 1.51299 -0.02936 0.06540
355.70000 1.50111 -0.14074 0.01405
355.80000 1.51196 -0.25165 -0.02837
355.90000 1.52174 -0.29022 -0.01118
356.00000 1.53647 -0.17157 0.01542
356.10000 1.50904 -0.10013 0.00919
356.20000 1.49020 0.05246 0.04829
356.30000 1.46750 0.05598 -0.00845
356.40000 1.49656 -0.11240 -0.03074
356.50000 1.50058 -0.29976 -0.03494
356.60000 1.49953 -0.22397 -0.01734
356.70000 1.50654 -0.17538 0.05159
356.80000 1.53988 -0.14135 0.00556
356.90000 1.44613 0.00038 -0.03676
357.00000 1.49499 0.25074 -0.00922
357.10000 1.58699 0.26349 0.03906
357.20000 1.50448 0.11828 -0.03510
357.30000 1.44180 -0.04427 -0.02924
357.40000 1.45855 -0.11049 -0.02757
357.50000 1.47997 -0.06397 -0.06159
357.60000 1.52808 0.05378 -0.04198
357.70000 1.54109 -0.04786 0.00497
357.80000 1.50340 0.06165 0.02601
357.90000 1.56603 -0.00383 0.01621
358.00000 1.54413 -0.10185 -0.01496
358.10000 1.46834 -0.07212 -0.06220
358.20000 1.46379 -0.01392 0.02502
358.30000 1.52455 -0.11916 0.02253
358.40000 1.55220 -0.35246 -0.04333
358.50000 1.53238 -0.28231 -0.02865
358.60000 1.48126 -0.13239 0.00438
358.70000 1.51978 0.03591 0.01812
358.80000 1.52497 0.06197 -0.03758
358.90000 1.48510 0.12734 -0.02436
359.00000 1.54047 0.18496 0.10281
359.10000 1.53801 0.24027 -0.00497
359.20000 1.47247 0.30634 -0.04708
359.30000 1.47978 0.15105 -0.02019
359.40000 1.53365 -0.04102 0.03727
359.50000 1.60273 -0.05232 0.04477
359.60000 1.51900 0.05369 -0.02466
359.70000 1.48645 -0.21646 0.03086
359.80000 1.48065 -0.11516 0.02144
359.90000 1.56694 0.23832 -0.02594
360.00000 1.50793 0.32293 -0.06156
360.10000 1.49230 0.52025 0.00988
360.20000 1.46422 0.30307 -0.03338
360.30000 1.53327 0.12554 -0.00621
360.40000 1.57356 -0.01189 -0.01546
360.50000 1.47181 -0.03299 -0.01005
360.60000 1.46345 -0.21370 0.02389
360.70000 1.51684 -0.25837 -0.06766
360.80000 1.45144 -0.19433 0.00744
360.90000 1.48038 -0.17491 0.01698
361.00000 1.53198 -0.13356 0.03465
361.10000 1.51510 -0.06658 -0.05713
361.20000 1.46170 -0.09797 -0.02767
361.30000 1.48541 -0.16651 0.03496
361.40000 1.60745 -0.01686 0.03384
361.50000 1.52476 0.17782 -0.01002
361.60000 1.44806 0.08414 -0.01789
361.70000 1.49786 -0.05871 0.02897
361.80000 1.57361 -0.02501 0.00992
361.90000 1.53428 0.02834 0.04912
362.00000 1.51557 0.10816 -0.00353
362.10000 1.49634 0.20879 -0.04819
362.20000 1.49051 0.07563 0.02328
362.30000 1.52301 -0.25193 0.07325
362.40000 1.48042 -0.20277 -0.02377
362.50000 1.51234 -0.03350 0.00895
362.60000 1.54882 0.07774 -0.02395
362.70000 1.52272 -0.06620 -0.04748
362.80000 1.53430 -0.08101 0.01479
362.90000 1.46572 0.03188 0.02173
363.00000 1.46393 0.13398 0.00937
363.10000 1.52672 0.02669 -0.00180
363.20000 1.52713 0.05666 -0.02024
363.30000 1.50549 -0.11350 0.00230
363.40000 1.50613 -0.40670 0.00399
363.50000 1.52893 -0.24461 -0.01605
363.60000 1.52493 0.05280 0.01900
363.70000 1.50732 0.19596 -0.02617
363.80000 1.49098 0.17303 -0.04090
363.90000 1.45043 -0.11196 -0.01535
364.00000 1.54866 -0.47982 0.00623
364.10000 1.53424 -0.37586 0.01952
364.20000 1.45189 -0.18404 -0.06451
364.30000 1.43885 -0.20250 0.02256
364.40000 1.53067 -0.09359 0.06539
364.50000 1.55777 0.08499 -0.03663
364.60000 1.54656 -0.03643 -0.00178
364.70000 1.46122 -0.05210 0.01469
364.80000 1.50288 -0.08082 -0.02949
364.90000 1.50893 -0.05440 -0.03846
365.00000 1.54640 0.17425 -0.02608
365.10000 1.48201 0.37212 -0.02016
365.20000 1.49492 0.08890 0.09692
365.30000 1.52128 -0.19053 0.00828
365.40000 1.54885 -0.27914 -0.01242
365.50000 1.42287 -0.11059 0.06386
365.60000 1.54189 -0.01936 -0.05072
365.70000 1.55731 -0.12619 -0.03705
365.80000 1.51448 -0.29051 0.07058
365.90000 1.46076 -0.12831 -0.05543
366.00000 1.52747 -0.07439 0.00898
366.10000 1.49727 0.01672 -0.04033
366.20000 1.50189 -0.04815 0.05572
366.30000 1.48898 0.00312 0.04191
366.40000 1.46529 -0.02677 -0.01489
366.50000 1.55003 0.19723 -0.03901
366.60000 1.48843 0.18401 -0.00987
366.70000 1.46057 0.03244 0.04354
366.80000 1.52389 -0.10961 -0.00896
366.90000 1.50991 -0.25406 0.02132
367.00000 1.56662 -0.18966 -0.00334
367.10000 1.47348 -0.07828 -0.01473
367.20000 1.53302 0.01419 -0.01009
367.30000 1.53850 0.01310 0.00202
367.40000 1.48649 0.06198 0.03946
367.50000 1.53399 0.15489 0.00629
367.60000 1.52612 0.22570 -0.03987
367.70000 1.45632 0.19522 0.06511
367.80000 1.52399 0.07208 0.00130
367.90000 1.56899 0.04345 -0.04009
368.00000 1.47726 0.04801 0.03528
368.10000 1.46238 -0.04046 -0.04662
368.20000 1.54181 0.01603 -0.00390
368.30000 1.53287 0.08634 -0.00434
368.40000 1.53623 0.00578 -0.00929
368.50000 1.52750 -0.27050 -0.01168
368.60000 1.47202 -0.45037 0.06385
368.70000 1.53970 -0.38747 -0.02034
368.80000 1.50104 -0.19608 -0.01073
368.90000 1.49596 -0.20278 0.00662
369.00000 1.53333 -0.18472 0.05151
369.10000 1.53619 -0.04070 0.00441
369.20000 1.47136 -0.16869 -0.05794
369.30000 1.46766 -0.37006 0.05685
369.40000 1.54704 -0.41699 0.00856
369.50000 1.52147 -0.28553 -0.10189
369.60000 1.49878 0.06566 0.01721
369.70000 1.52505 0.36782 0.01548
369.80000 1.50659 0.36669 0.02258
369.90000 1.52072 0.30500 -0.02205
370.00000 1.51504 0.22331 0.00054
370.10000 1.50179 0.18220 0.02627
370.20000 1.53705 0.06084 0.06847
370.30000 1.40121 -0.14408 0.01797
370.40000 1.48357 -0.25376 -0.12334
370.50000 1.55743 -0.24350 0.01658
370.60000 1.49791 0.05945 0.05512
370.70000 1.48162 0.26025 -0.04927
370.80000 1.55386 0.30746 0.01429
370.90000 1.48794 0.27792 -0.04298
371.00000 1.48649 0.24000 0.09149
371.10000 1.58667 0.09539 -0.02627
371.20000 1.45587 -0.01615 -0.06736
371.30000 1.52291 -0.03348 0.05795
371.40000 1.49924 0.06396 -0.02569
371.50000 1.52750 0.09297 -0.03414
371.60000 1.49915 0.24103 0.00848
371.70000 1.52211 0.21406 0.01829
371.80000 1.50644 0.01522 -0.02332
371.90000 1.51805 -0.23603 -0.02020
372.00000 1.47772 -0.26883 0.00162
372.10000 1.51931 -0.09271 -0.01451
372.20000 1.53029 -0.01886 0.01147
372.30000 1.50826 0.02265 0.02419
372.40000 1.47418 0.05141 0.06159
372.50000 1.52124 0.19578 -0.02665
372.60000 1.46795 0.25547 -0.01834
372.70000 1.51611 -0.00727 -0.01498
372.80000 1.53112 -0.14956 0.02236
372.90000 1.49458 0.04075 0.03071
373.00000 1.45569 0.07630 0.00274
373.10000 1.49212 -0.11244 0.04283
373.20000 1.52164 -0.12654 -0.02599
373.30000 1.52435 -0.02635 0.00026
373.40000 1.50904 0.05020 -0.02323
373.50000 1.50035 -0.09686 0.03290
373.60000 1.50147 -0.13390 0.02744
373.70000 1.53590 -0.08866 -0.03928
373.80000 1.52997 0.05737 0.02319
373.90000 1.52674 -0.00212 0.05376
374.00000 1.48140 0.08430 0.01687
374.10000 1.50481 0.06658 -0.06883
374.20000 1.53291 -0.16243 -0.00132
374.30000 1.49893 -0.35646 0.02385
374.40000 1.55635 -0.33063 0.03782
374.50000 1.46756 -0.22128 -0.02094
374.60000 1.49198 -0.00387 -0.04180
374.70000 1.48485 0.18289 0.06103
374.80000 1.53081 0.05731 -0.02687
374.90000 1.51708 -0.14274 -0.08004
375.00000 1.48633 -0.12628 0.05651
375.10000 1.50274 -0.04295 0.05005
375.20000 1.53983 0.11294 -0.05454
375.30000 1.52651 0.23435 0.00105
375.40000 1.49964 0.23269 0.07074
375.50000 1.49310 0.05865 -0.01186
375.60000 1.54226 -0.21620 -0.05150
375.70000 1.53654 -0.04712 0.03357
375.80000 1.47713 0.23623 0.00034
375.90000 1.49497 0.27695 0.00535
376.00000 1.55485 0.18423 -0.02427
376.10000 1.51184 0.23900 0.00460
376.20000 1.47827 0.28519 0.02132
376.30000 1.51193 0.16630 0.00698
376.40000 1.55889 0.06156 0.05688
376.50000 1.48210 0.08719 0.00400
376.60000 1.45954 0.26293 -0.01739
376.70000 1.52279 0.21579 0.04967
376.80000 1.47109 0.00343 -0.03517
376.90000 1.49245 -0.09206 -0.04441
377.00000 1.55368 -0.03530 -0.04071
377.10000 1.53116 -0.20523 0.10454
377.20000 1.50286 -0.10509 -0.08419
377.30000 1.47773 0.17959 -0.05744
377.40000 1.48260 0.16942 0.03228
377.50000 1.55283 -0.06703 0.08277
377.60000 1.49309 -0.29268 0.00030
377.70000 1.47379 -0.10681 -0.05358
377.80000 1.53783 0.10767 -0.00032
377.90000 1.53927 0.11235 0.00482
378.00000 1.56836 0.05027 0.04825
378.10000 1.49787 -0.11468 0.00133
378.20000 1.48569 -0.21365 -0.02536
378.30000 1.50588 -0.00750 0.01459
378.40000 1.48406 0.01644 -0.01444
378.50000 1.53421 -0.09170 -0.00386
378.60000 1.54575 -0.18304 -0.01999
378.70000 1.50822 -0.16312 0.00902
378.80000 1.50628 0.18591 0.01649
378.90000 1.51092 0.14812 -0.01749
379.00000 1.47295 -0.21979 0.00934
379.10000 1.55990 -0.21913 0.01636
379.20000 1.56259 -0.26728 0.00857
379.30000 1.50130 -0.09931 -0.02801
379.40000 1.41647 0.05109 0.01423
379.50000 1.54966 0.13942 0.00680
379.60000 1.56361 0.14670 -0.01128
379.70000 1.49445 0.06496 0.03038
379.80000 1.46073 0.07015 -0.01653
379.90000 1.50780 0.00752 -0.00212
380.00000 1.52403 -0.13817 -0.00154
380.10000 1.50331 0.00472 0.03849
380.20000 1.51987 -0.12843 -0.00455
380.30000 1.55039 -0.19267 0.00617
380.40000 1.53274 -0.18624 0.00485
380.50000 1.47791 -0.13068 0.04667
380.60000 1.48840 0.11478 -0.09494
380.70000 1.43932 0.22616 0.03482
380.80000 1.52784 -0.02097 0.02717
380.90000 1.54622 -0.16201 0.05829
381.00000 1.51143 -0.11752 -0.04664
381.10000 1.45946 -0.09152 -0.07736
381.20000 1.57758 -0.15415 0.00881
381.30000 1.50176 -0.25068 0.02671
381.40000 1.47167 -0.31488 -0.03664
381.50000 1.45410 -0.26782 -0.00589
381.60000 1.52893 -0.04766 0.01441
381.70000 1.52618 0.06443 -0.03243
381.80000 1.46997 0.15656 -0.01409
381.90000 1.47325 0.30346 -0.01115
382.00000 1.51574 0.21969 -0.05570
382.10000 1.53805 0.05574 0.04943
382.20000 1.47629 -0.11034 0.00498
382.30000 1.51967 -0.03133 0.00411
382.40000 1.51554 -0.04453 0.03472
382.50000 1.51620 -0.06055 0.00607
382.60000 1.49469 0.12444 -0.01967
382.70000 1.50172 -0.13359 -0.04303
382.80000 1.48424 -0.20788 0.02181
382.90000 1.51252 -0.12170 -0.00934
383.00000 1.51878 -0.01609 -0.06889
383.10000 1.58229 -0.10156 0.06196
383.20000 1.48530 -0.20567 -0.02672
383.30000 1.48326 -0.27528 -0.07441
383.40000 1.51248 -0.16059 0.02704
383.50000 1.50358 -0.04460 -0.03974
383.60000 1.50306 -0.01246 -0.01910
383.70000 1.50896 0.01425 0.03696
383.80000 1.52106 0.02552 -0.04604
383.90000 1.50752 0.02664 -0.00467
384.00000 1.52950 0.08971 -0.01933
384.10000 1.49909 -0.01445 -0.05432
384.20000 1.55129 -0.01869 0.06044
384.30000 1.50038 0.08080 -0.04642
384.40000 1.48364 0.08194 0.01794
384.50000 1.53642 -0.13404 -0.00155
384.60000 1.49292 -0.20413 0.01553
384.70000 1.52964 -0.22415 0.00159
384.80000 1.52388 -0.30991 -0.00044
384.90000 1.51649 -0.22631 0.04167
385.00000 1.51925 0.15662 -0.00773
385.10000 1.55621 0.35337 -0.05984
385.20000 1.45524 0.31655 0.02474
385.30000 1.53105 0.07152 -0.03602
385.40000 1.54614 0.01925 -0.01828
385.50000 1.50550 -0.18745 0.06005
385.60000 1.57910 -0.07423 0.03268
385.70000 1.48438 -0.01930 -0.04172
385.80000 1.50502 0.16429 0.09186
385.90000 1.42283 0.25948 0.00532
386.00000 1.52589 0.18424 -0.03249
386.10000 1.59950 0.13052 0.06732
386.20000 1.47219 0.09210 0.00957
386.30000 1.49100 0.08411 -0.00249
386.40000 1.54418 0.09776 -0.00914
386.50000 1.52497 0.06098 -0.00992
386.60000 1.55572 0.00499 -0.00311
386.70000 1.50089 -0.11397 0.01989
386.80000 1.51230 -0.15874 -0.00289
386.90000 1.47869 -0.22009 0.03360
387.00000 1.46920 -0.03868 0.02439
387.10000 1.50434 0.31306 -0.07568
387.20000 1.50204 0.24913 -0.01095
387.30000 1.53086 0.05369 0.01035
387.40000 1.55962 0.00187 0.01691
387.50000 1.55096 -0.02509 -0.02903
387.60000 1.48217 -0.05160 0.02285
387.70000 1.50572 0.07736 -0.00786
387.80000 1.58116 0.01994 0.03266
387.90000 1.48061 0.04801 0.00116
388.00000 1.47109 -0.02760 -0.03337
388.10000 1.49471 -0.11226 0.00881
388.20000 1.57559 -0.21750 0.01666
388.30000 1.58395 -0.23039 0.04176
388.40000 1.51031 -0.12667 -0.00401
388.50000 1.47964 0.02851 -0.03445
388.60000 1.53003 0.21671 -0.04003
388.70000 1.47910 0.16560 0.00498
388.80000 1.50627 0.11388 -0.00039
388.90000 1.52715 0.22031 -0.05464
389.00000 1.54656 0.16535 0.06059
389.10000 1.55589 -0.04140 0.01612
389.20000 1.48276 0.03391 -0.04711
389.30000 1.42278 0.15135 0.00334
389.40000 1.53991 0.08495 0.02139
389.50000 1.52292 0.08801 -0.02288
389.60000 1.44709 0.26464 -0.00137
389.70000 1.48283 0.04400 0.01087
389.80000 1.55477 -0.11750 -0.00048
389.90000 1.52713 -0.14029 0.05093
390.00000 1.46055 -0.21679 -0.02140
390.10000 1.48096 -0.25811 -0.02429
390.20000 1.52208 -0.10625 0.03389
390.30000 1.54811 0.02146 -0.02234
390.40000 1.48458 0.06186 -0.01118
390.50000 1.53995 -0.11149 -0.01471
390.60000 1.49908 -0.13913 0.06843
390.70000 1.51087 -0.06555 0.00860
390.80000 1.50826 -0.02930 -0.03318
390.90000 1.49343 -0.09715 -0.00636
391.00000 1.48918 -0.13542 0.04724
391.10000 1.57422 0.03159 0.00448
391.20000 1.50254 -0.04120 0.01899
391.30000 1.51073 -0.23555 -0.01615
391.40000 1.50365 -0.23323 -0.03950
391.50000 1.49742 -0.08929 -0.01245
391.60000 1.52922 0.04783 0.00307
391.70000 1.50793 0.13389 0.03752
391.80000 1.50730 0.03219 -0.04247
391.90000 1.56492 -0.16747 -0.03652
392.00000 1.49754 -0.15509 0.10871
392.10000 1.46725 -0.03408 -0.01840
392.20000 1.49033 0.00315 -0.04614
392.30000 1.51507 0.23674 0.02438
392.40000 1.47913 0.13528 -0.05233
392.50000 1.56315 -0.07061 0.02201
392.60000 1.51666 -0.23485 0.03208
392.70000 1.49562 -0.41598 -0.03645
392.80000 1.39610 -0.15777 0.02326
392.90000 1.51730 0.21790 0.00310
393.00000 1.54239 0.34529 0.03524
393.10000 1.50411 0.27814 -0.01488
393.20000 1.55443 0.14759 -0.00706
393.30000 1.50808 0.04459 0.02738
393.40000 1.47924 -0.10876 -0.01400
393.50000 1.53638 -0.18677 0.01495
393.60000 1.54728 -0.26942 -0.00483
393.70000 1.53056 -0.12415 -0.06700
393.80000 1.51362 0.07075 0.01980
393.90000 1.48654 0.13260 0.03678
394.00000 1.51849 -0.01725 0.05901
394.10000 1.44202 -0.05395 -0.06759
394.20000 1.49435 -0.07173 0.02167
394.30000 1.54633 -0.02598 -0.03793
394.40000 1.50691 -0.02762 0.02974
394.50000 1.47839 0.01347 0.00506
394.60000 1.51045 0.07579 0.05189
394.70000 1.53528 0.30525 -0.05013
394.80000 1.48326 0.08348 -0.01916
394.90000 1.54153 -0.11937 0.04617
395.00000 1.56683 0.05755 0.00282
395.10000 1.51011 0.16711 -0.03177
395.20000 1.45375 0.06114 -0.07977
395.30000 1.51763 0.03161 0.07713
395.40000 1.54284 0.16455 -0.02716
395.50000 1.51412 0.27680 -0.00704
395.60000 1.49696 0.11442 -0.01095
395.70000 1.50364 -0.12547 0.00071
395.80000 1.50030 -0.24847 -0.04594
395.90000 1.51063 -0.04862 0.01068
396.00000 1.48260 -0.00324 0.00359
396.10000 1.55717 0.01532 0.05008
396.20000 1.54922 0.06910 -0.00170
396.30000 1.51567 0.14991 0.00685
396.40000 1.44595 0.11326 0.01132
396.50000 1.54729 -0.02340 -0.01580
396.60000 1.51272 0.01537 0.05326
396.70000 1.53085 0.19122 0.00686
396.80000 1.45012 0.00429 -0.01512
396.90000 1.51854 0.05417 0.05414
397.00000 1.54363 0.07391 -0.02323
397.10000 1.46825 0.08552 -0.01524
397.20000 1.51101 0.02390 -0.01725
397.30000 1.51061 0.10397 -0.00079
397.40000 1.50286 -0.03913 0.05954
397.50000 1.45345 -0.30041 -0.02788
397.60000 1.55665 -0.35745 0.01378
397.70000 1.53144 -0.14937 -0.02380
397.80000 1.49145 0.10684 -0.03806
397.90000 1.55590 0.02086 -0.00061
398.00000 1.51399 -0.05431 0.03322
398.10000 1.47347 0.12541 -0.03220
398.20000 1.51983 0.47600 -0.03023
398.30000 1.51564 0.49427 0.04084
398.40000 1.54814 0.33069 0.01056
398.50000 1.50983 0.02419 -0.02625
398.60000 1.50497 -0.24127 0.01319
398.70000 1.53788 -0.31406 0.05577
398.80000 1.52347 -0.06976 -0.07264
398.90000 1.56096 0.27283 -0.07748
399.00000 1.45927 0.42398 0.08098
399.10000 1.48380 0.16303 0.01524
399.20000 1.51384 -0.06658 -0.05287
399.30000 1.57197 -0.21994 0.03942
399.40000 1.53543 -0.27995 -0.02645
399.50000 1.52182 0.08094 0.03639
399.60000 1.51751 0.29006 -0.05638
399.70000 1.43885 0.21973 -0.02265
399.80000 1.53578 0.15255 0.09506
399.90000 1.55071 -0.02422 0.00596
400.00000 1.48844 -0.20502 0.00104
400.10000 1.45538 -0.04308 -0.06713
400.20000 1.46490 0.02380 0.04920
400.30000 1.52321 0.05228 0.05852
400.40000 1.53882 0.03061 -0.01753
400.50000 1.52845 0.04101 -0.02359
400.60000 1.47416 -0.00687 0.02402
400.70000 1.51741 -0.06783 0.02532
400.80000 1.54064 -0.03173 -0.02526
400.90000 1.51044 -0.01788 0.00622
401.00000 1.46050 -0.03112 0.06310
401.10000 1.50832 0.06267 0.04419
401.20000 1.53620 0.17895 0.02494
401.30000 1.54291 0.15596 -0.06095
401.40000 1.48837 0.32967 0.03154
401.50000 1.49425 0.38331 0.03406
401.60000 1.54604 0.14148 -0.02203
401.70000 1.52541 -0.09816 0.02908
401.80000 1.51845 -0.10413 -0.00972
401.90000 1.47183 -0.14901 0.01436
402.00000 1.44813 -0.10028 0.02145
402.10000 1.55613 -0.08947 -0.01287
402.20000 1.50428 -0.01827 0.03506
402.30000 1.49426 0.08714 -0.01360
402.40000 1.53881 -0.13330 -0.02404
402.50000 1.48917 -0.19758 -0.03527
402.60000 1.46751 -0.10888 0.02465
402.70000 1.52875 0.15016 0.02747
402.80000 1.53673 0.32525 -0.01603
402.90000 1.49241 0.25768 -0.00654
403.00000 1.49502 0.13749 0.03005
403.10000 1.52996 0.10528 -0.00484
403.20000 1.45662 -0.04225 -0.05104
403.30000 1.52167 -0.00106 0.01959
403.40000 1.62547 -0.03759 -0.04860
403.50000 1.48997 -0.07360 -0.02265
403.60000 1.47905 -0.03767 0.00950
403.70000 1.51896 -0.05388 0.01555
403.80000 1.49080 0.00579 0.00830
403.90000 1.49090 -0.05867 0.00733
404.00000 1.48488 -0.08847 0.04962
404.10000 1.50851 -0.13081 0.02123
404.20000 1.54499 0.02416 -0.01339
404.30000 1.49337 0.26213 0.01371
404.40000 1.41290 0.24956 -0.02332
404.50000 1.51461 0.27120 -0.06430
404.60000 1.59419 0.11922 0.08321
404.70000 1.52096 0.07932 -0.07663
404.80000 1.47003 0.07413 -0.03322
404.90000 1.50489 0.03662 0.02270
405.00000 1.54261 0.15018 0.01790
405.10000 1.52670 0.32607 0.00972
405.20000 1.49337 0.36792 -0.04599
405.30000 1.51066 0.23529 0.06313
405.40000 1.52683 0.20154 -0.00124
405.50000 1.48326 0.28687 0.00413
405.60000 1.50743 0.14211 -0.01331
405.70000 1.46883 -0.25143 -0.01943
405.80000 1.52050 -0.23417 0.01148
405.90000 1.54250 -0.09897 -0.01555
406.00000 1.51119 0.02135 -0.01913
406.10000 1.49389 0.18996 0.05197
406.20000 1.49789 0.05009 -0.01871
406.30000 1.48607 0.14834 0.00307
406.40000 1.51049 0.09087 -0.07191
406.50000 1.51358 -0.12311 -0.03511
406.60000 1.52004 -0.16309 0.05343
406.70000 1.47370 -0.13894 0.00349
406.80000 1.43873 -0.03716 -0.01793
406.90000 1.57940 0.15998 -0.02862
407.00000 1.51677 0.23060 -0.01269
407.10000 1.44969 0.13750 0.03646
407.20000 1.51412 -0.02972 -0.00033
407.30000 1.58885 -0.03871 -0.04980
407.40000 1.47328 -0.30453 -0.01658
407.50000 1.47187 -0.29809 0.01323
407.60000 1.52623 -0.25997 0.05637
407.70000 1.52607 -0.17470 -0.01734
407.80000 1.52582 0.17930 -0.05816
407.90000 1.47289 0.19515 0.03543
408.00000 1.46915 0.05114 -0.00912
408.10000 1.56582 -0.24674 -0.06710
408.20000 1.51038 -0.18250 0.02230
408.30000 1.49884 -0.14230 -0.02064
408.40000 1.55080 -0.06514 0.02211
408.50000 1.54683 -0.08399 -0.03700
408.60000 1.48910 -0.07255 -0.01963
408.70000 1.52334 0.01124 -0.01339
408.80000 1.47552 -0.01153 0.02344
408.90000 1.49035 -0.15617 0.00380
409.00000 1.57563 -0.23581 -0.02349
409.10000 1.46343 -0.11159 0.00216
409.20000 1.44605 -0.02903 -0.03332
409.30000 1.53352 0.07082 0.05342
409.40000 1.55606 0.11356 0.01896
409.50000 1.47893 -0.06922 -0.02022
409.60000 1.52548 0.09999 -0.01354
409.70000 1.51124 0.31291 0.02655
409.80000 1.55945 0.15175 -0.01738
409.90000 1.54735 0.04223 0.00058
410.00000 1.46882 -0.04539 -0.00391
410.10000 1.50864 -0.25773 0.06519
410.20000 1.50423 -0.31375 0.00654
410.30000 1.51954 -0.17316 -0.04115
410.40000 1.47739 0.04472 -0.08305
410.50000 1.49371 -0.02540 0.04746
410.60000 1.50423 -0.02179 0.01240
410.70000 1.51270 0.06356 0.03839
410.80000 1.57177 -0.02703 -0.01497
410.90000 1.56226 -0.09918 0.01967
411.00000 1.53723 -0.01734 0.00913
411.10000 1.48127 0.06838 0.00607
411.20000 1.49889 -0.09803 0.04197
411.30000 1.49271 -0.20373 -0.02890
411.40000 1.54068 -0.20215 -0.04923
411.50000 1.49053 -0.12550 0.00974
411.60000 1.45418 0.12635 0.01101
411.70000 1.58268 0.12683 -0.03707
411.80000 1.51462 0.10369 0.06329
411.90000 1.47077 0.07816 -0.04230
412.00000 1.55401 0.08473 -0.00791
412.10000 1.54147 -0.05054 0.00104
412.20000 1.53250 -0.13680 -0.04481
412.30000 1.47472 0.10120 -0.05790
412.40000 1.51093 -0.00825 0.04843
412.50000 1.52968 -0.10172 0.05449
412.60000 1.55427 -0.13514 -0.02733
412.70000 1.45322 -0.03048 -0.02622
412.80000 1.52485 0.22737 0.04829
412.90000 1.53840 0.28866 0.00678
413.00000 1.47656 0.14931 0.01478
413.10000 1.49255 -0.01999 0.01865
413.20000 1.52067 0.05557 0.05370
413.30000 1.48360 -0.05202 -0.07638
413.40000 1.48728 -0.11733 -0.02129
413.50000 1.53966 0.03177 0.02412
413.60000 1.49489 0.10545 0.04280
413.70000 1.53027 0.13975 -0.00190
413.80000 1.49356 0.10938 -0.04268
413.90000 1.54677 0.03430 -0.04986
414.00000 1.53690 -0.03926 0.00761
414.10000 1.46988 -0.06091 0.01927
414.20000 1.49719 -0.16945 -0.03764
414.30000 1.50545 -0.11117 0.01332
414.40000 1.55593 0.01201 0.00816
414.50000 1.48399 0.04573 -0.04183
414.60000 1.49383 -0.19337 0.00353
414.70000 1.48456 -0.21481 0.02164
414.80000 1.53524 0.00800 0.00534
414.90000 1.48931 0.03368 0.04379
415.00000 1.58398 0.02569 0.00759
415.10000 1.51515 0.04417 0.02925
415.20000 1.56287 -0.00873 -0.02349
415.30000 1.51540 0.06164 0.04899
415.40000 1.45868 0.06612 -0.01113
415.50000 1.55242 0.25089 -0.02582
415.60000 1.49236 0.20770 -0.01448
415.70000 1.46868 0.08300 0.01653
415.80000 1.49627 -0.00258 0.01206
415.90000 1.46939 0.09389 -0.04396
416.00000 1.50277 0.11539 -0.03328
416.10000 1.51442 -0.15964 0.03968
416.20000 1.52797 -0.26431 0.05338
416.30000 1.51336 -0.19924 0.00556
416.40000 1.46656 -0.17115 -0.04830
416.50000 1.56136 -0.20549 -0.03338
416.60000 1.48331 -0.25576 0.03802
416.70000 1.51553 -0.20234 0.01838
416.80000 1.48727 -0.27442 -0.02935
416.90000 1.48024 -0.18214 -0.03045
417.00000 1.62469 -0.21645 -0.00398
417.10000 1.51907 -0.24793 0.03504
417.20000 1.41935 -0.03190 -0.00157
417.30000 1.45960 -0.03600 -0.06513
417.40000 1.60147 -0.04255 0.02460
417.50000 1.52658 0.10190 0.05874
417.60000 1.49288 -0.06768 -0.07326
417.70000 1.52700 -0.20091 -0.04840
417.80000 1.49640 -0.02813 0.09506
417.90000 1.55195 0.01245 0.00442
418.00000 1.47842 0.03325 -0.01377
418.10000 1.52221 0.10870 0.03161
418.20000 1.52568 0.22128 0.07480
418.30000 1.50078 0.16128 -0.05680
418.40000 1.48083 0.00725 -0.02583
418.50000 1.52297 0.07735 0.05033
418.60000 1.51093 -0.00886 -0.04227
418.70000 1.45989 -0.11242 -0.06759
418.80000 1.56284 -0.06085 0.02485
418.90000 1.48547 -0.13505 0.05675
419.00000 1.53824 -0.26857 -0.01700
419.10000 1.51571 -0.13666 0.00038
419.20000 1.52501 -0.06118 0.05096
419.30000 1.55313 -0.03496 -0.06577
419.40000 1.49690 0.03648 0.05086
419.50000 1.50441 -0.06880 0.02232
419.60000 1.52699 -0.21465 -0.07572
419.70000 1.42565 -0.13831 -0.01872
419.80000 1.57541 -0.06717 0.08851
419.90000 1.47341 0.00523 -0.04633
420.00000 1.48364 0.16761 -0.03798
420.10000 1.51163 0.21234 0.05586
420.20000 1.52605 0.21486 -0.05615
420.30000 1.54609 0.13803 -0.01352
420.40000 1.45687 -0.09567 0.01529
420.50000 1.51913 -0.07833 -0.01344
420.60000 1.49832 -0.06111 0.01555
420.70000 1.52680 0.00828 0.01797
420.80000 1.53661 -0.07690 0.00886
420.90000 1.44061 0.01379 -0.00950
421.00000 1.55352 0.29357 -0.02319
421.10000 1.49351 0.32675 0.07014
421.20000 1.52569 0.08811 0.01327
421.30000 1.52538 0.01710 -0.02446
421.40000 1.39886 0.11878 -0.02992
421.50000 1.58250 0.10667 0.06105
421.60000 1.53652 0.11749 -0.04138
421.70000 1.47665 0.01054 -0.01842
421.80000 1.48392 0.10906 0.02969
421.90000 1.53358 0.00432 -0.04068
422.00000 1.47806 -0.08247 0.00276
422.10000 1.52001 -0.18650 0.01492
422.20000 1.48473 -0.09697 -0.00974
422.30000 1.50815 -0.01723 -0.04626
422.40000 1.51602 -0.14647 0.08794
422.50000 1.50364 -0.20997 0.00270
422.60000 1.49359 -0.11639 0.04064
422.70000 1.51174 -0.12231 0.02252
422.80000 1.51948 -0.07392 -0.08238
422.90000 1.48192 -0.16658 -0.01023
423.00000 1.50004 -0.16477 0.06525
423.10000 1.53741 0.02003 0.02072
423.20000 1.49881 0.22455 -0.06086
423.30000 1.49628 0.17548 0.00817
423.40000 1.57192 -0.03077 0.02704
423.50000 1.52482 -0.11476 -0.05200
423.60000 1.47508 -0.17900 -0.01930
423.70000 1.45268 -0.19108 0.06089
423.80000 1.54002 -0.00534 0.03767
423.90000 1.52382 0.03351 -0.01416
424.00000 1.53309 0.03057 -0.05296
424.10000 1.51118 -0.00281 0.00899
424.20000 1.49622 0.04315 0.03422
424.30000 1.48159 0.06890 -0.01201
424.40000 1.50577 0.03603 -0.00663
424.50000 1.50640 -0.11711 -0.01878
424.60000 1.53020 -0.07885 -0.00426
424.70000 1.51079 0.00132 0.05261
424.80000 1.48278 -0.02585 -0.01718
424.90000 1.55949 -0.10232 -0.05408
425.00000 1.55504 -0.39427 0.01085
425.10000 1.50222 -0.42781 0.02861
425.20000 1.51381 -0.06136 -0.00939
425.30000 1.50485 0.15569 -0.06528
425.40000 1.48223 0.17518 0.01632
425.50000 1.53153 0.23732 -0.00819
425.60000 1.50342 0.19727 -0.03958
425.70000 1.49783 0.11242 0.06777
425.80000 1.51275 -0.08304 -0.00455
425.90000 1.52219 -0.13549 0.04348
426.00000 1.50549 -0.19362 0.03089
426.10000 1.46475 -0.04869 0.01289
426.20000 1.43652 -0.01445 -0.01898
426.30000 1.59084 0.01076 -0.00094
426.40000 1.52450 0.10313 0.04801
426.50000 1.48557 0.04523 -0.05536
426.60000 1.50607 0.02940 -0.00042
426.70000 1.52582 -0.02421 0.04639
426.80000 1.48325 -0.13656 -0.04377
426.90000 1.51923 -0.14064 -0.05202
427.00000 1.50446 0.00873 0.06826
427.10000 1.50138 0.00044 -0.03640
427.20000 1.53654 -0.14342 -0.02510
427.30000 1.56998 -0.15225 0.03844
427.40000 1.53091 -0.05608 -0.00209
427.50000 1.41954 -0.01232 -0.00584
427.60000 1.51554 0.02446 0.02138
427.70000 1.54755 -0.07604 -0.02216
427.80000 1.46684 0.00926 0.02196
427.90000 1.43678 0.09889 0.01060
428.00000 1.56066 0.13674 0.04769
428.10000 1.53260 0.07506 -0.04050
428.20000 1.42496 -0.08757 -0.05427
428.30000 1.54134 -0.22428 0.05627
428.40000 1.54747 0.02793 0.04366
428.50000 1.45303 0.00615 -0.00182
428.60000 1.49271 -0.14291 -0.01499
428.70000 1.56846 -0.14720 0.00137
428.80000 1.54444 -0.01503 -0.00601
428.90000 1.39015 0.12942 0.02243
429.00000 1.48676 0.01863 -0.01834
429.10000 1.50413 -0.11407 0.03159
429.20000 1.50382 -0.13419 0.01764
429.30000 1.48044 -0.15290 0.03738
429.40000 1.57818 -0.01162 -0.03032
429.50000 1.49245 0.13408 -0.07041
429.60000 1.46754 0.01923 0.03622
429.70000 1.53085 -0.14449 0.03389
429.80000 1.55601 -0.08115 -0.03719
429.90000 1.48510 -0.18735 -0.00685
430.00000 1.49457 -0.24889 -0.02962
430.10000 1.49503 -0.22035 -0.00651
430.20000 1.48209 -0.08582 -0.00098
430.30000 1.50791 -0.03768 -0.07579
430.40000 1.53317 -0.24254 0.02556
430.50000 1.48411 -0.24644 0.06024
430.60000 1.58067 -0.26281 0.06003
430.70000 1.55006 -0.25367 -0.03021
430.80000 1.45727 -0.19163 -0.03484
430.90000 1.53017 0.03492 -0.00275
431.00000 1.48020 0.14496 0.03376
431.10000 1.49130 -0.07705 -0.04903
431.20000 1.52154 -0.09870 -0.01067
431.30000 1.53360 0.04624 -0.02262
431.40000 1.47178 0.19424 0.04660
431.50000 1.50024 0.02432 0.05780
431.60000 1.49497 -0.20521 -0.05345
431.70000 1.51776 -0.31848 -0.03475
431.80000 1.55676 -0.17411 0.05580
431.90000 1.49571 -0.11519 0.05605
432.00000 1.40134 -0.23905 0.00852
432.10000 1.50641 -0.10133 -0.06113
432.20000 1.54333 0.19439 -0.02315
432.30000 1.46357 0.19161 0.04959
432.40000 1.53337 0.12389 -0.02532
432.50000 1.58229 -0.00167 -0.01400
432.60000 1.55514 -0.15917 0.03584
432.70000 1.41318 -0.28114 -0.06089
432.80000 1.49195 -0.17067 -0.05303
432.90000 1.50734 0.09218 0.02974
433.00000 1.54321 0.22837 0.02472
433.10000 1.49324 0.21017 -0.00097
433.20000 1.48014 0.14085 0.00332
433.30000 1.52029 0.00223 0.00153
433.40000 1.49603 -0.13177 -0.05316
433.50000 1.51252 -0.18843 0.03062
433.60000 1.48117 -0.10586 -0.01529
433.70000 1.52117 -0.11312 0.05072
433.80000 1.50821 -0.08645 -0.01115
433.90000 1.56894 -0.15874 -0.02986
434.00000 1.46377 -0.12527 0.03114
434.10000 1.51824 0.00440 -0.01162
434.20000 1.53116 0.07017 -0.04723
434.30000 1.54136 0.19829 0.00357
434.40000 1.46744 0.20022 0.04949
434.50000 1.46099 0.07715 0.03612
434.60000 1.50266 0.10822 -0.05414
434.70000 1.50986 0.22782 -0.03613
434.80000 1.53718 0.23213 0.02144
434.90000 1.50282 0.01125 -0.02344
435.00000 1.57834 -0.27118 -0.01105
435.10000 1.50393 -0.25428 -0.00884
435.20000 1.47087 -0.05035 -0.00172
435.30000 1.52707 0.23438 0.00883
435.40000 1.55436 0.31428 0.00875
435.50000 1.49076 0.12021 -0.04545
435.60000 1.53600 0.02656 -0.00395
435.70000 1.52404 -0.07341 0.06375
435.80000 1.48426 -0.15177 -0.00979
435.90000 1.50196 -0.06810 -0.03543
436.00000 1.52932 0.07758 0.00723
436.10000 1.52645 0.11695 0.01632
436.20000 1.46383 0.09312 -0.04208
436.30000 1.49995 -0.07156 0.02136
436.40000 1.54063 -0.10049 0.04066
436.50000 1.49673 -0.11907 0.01434
436.60000 1.45279 -0.12885 -0.06352
436.70000 1.51858 0.10107 0.02349
436.80000 1.52665 0.22300 0.04221
436.90000 1.47904 0.06505 -0.00836
437.00000 1.52282 0.05407 -0.02243
437.10000 1.49512 0.01727 -0.01056
437.20000 1.51629 -0.01637 -0.03216
437.30000 1.56479 -0.10532 0.01855
437.40000 1.49685 0.10973 -0.01263
437.50000 1.44972 0.13350 0.04408
437.60000 1.45889 0.12276 -0.02541
437.70000 1.50469 0.16019 -0.02250
437.80000 1.55752 0.08154 0.03125
437.90000 1.55484 -0.07891 -0.04340
438.00000 1.55793 -0.07400 -0.01742
438.10000 1.49895 0.08523 0.07228
438.20000 1.50219 0.02337 -0.04807
438.30000 1.54222 -0.14161 -0.01596
438.40000 1.52593 -0.09282 -0.00801
438.50000 1.49434 -0.00583 0.05159
438.60000 1.50639 0.06181 -0.04033
438.70000 1.56114 -0.00484 -0.01563
438.80000 1.52441 -0.21544 0.00580
438.90000 1.52225 -0.04855 0.04043
439.00000 1.57519 0.05191 -0.09110
439.10000 1.55811 0.07928 0.01359
439.20000 1.48512 0.10696 -0.01706
439.30000 1.50935 -0.03269 0.03571
439.40000 1.53786 -0.07665 0.04973
439.50000 1.53089 -0.06594 0.03098
439.60000 1.51712 -0.12435 -0.01901
439.70000 1.56019 -0.07746 -0.01691
439.80000 1.51990 -0.03896 0.00015
439.90000 1.50210 0.01818 0.00801
440.00000 1.51211 0.08120 -0.07534
440.10000 1.49665 0.19765 0.00922
440.20000 1.49747 0.30358 -0.02294
440.30000 1.50543 0.22267 -0.00219
440.40000 1.51953 0.06593 0.01036
440.50000 1.56127 -0.13690 -0.00539
440.60000 1.48256 -0.14793 0.01793
440.70000 1.44972 0.11881 0.03499
440.80000 1.58449 0.37307 -0.04214
440.90000 1.50783 0.24760 -0.06637
441.00000 1.52022 0.02306 0.06160
441.10000 1.44028 -0.06501 -0.01602
441.20000 1.48417 -0.13975 -0.01734
441.30000 1.54200 -0.18134 -0.02137
441.40000 1.51876 0.05692 -0.05363
441.50000 1.50255 0.17527 0.00080
441.60000 1.49024 0.10404 0.07210
441.70000 1.50393 0.24189 0.01023
441.80000 1.44312 0.08642 -0.01792
441.90000 1.53476 -0.09533 -0.01221
442.00000 1.50454 0.07907 0.03064
442.10000 1.51016 -0.06115 0.03026
442.20000 1.50095 -0.15473 -0.04617
442.30000 1.51841 -0.07617 0.01308
442.40000 1.54547 0.05330 0.01722
442.50000 1.54953 0.11620 0.01315
442.60000 1.46988 -0.04107 0.07714
442.70000 1.51678 -0.05317 0.01662
442.80000 1.56453 -0.03418 0.01497
442.90000 1.49549 -0.00513 0.02356
443.00000 1.49706 -0.02630 -0.06539
443.10000 1.53601 -0.11121 0.00639
443.20000 1.48764 -0.02220 0.03530
443.30000 1.53214 0.34374 0.00996
443.40000 1.57695 0.47141 -0.00326
443.50000 1.54643 0.10706 -0.00630
443.60000 1.46397 -0.11404 0.00245
443.70000 1.50130 -0.17106 0.03772
443.80000 1.54317 -0.09343 0.00582
443.90000 1.56633 0.03044 0.04090
444.00000 1.48376 0.01500 -0.01877
444.10000 1.47331 -0.12952 0.02259
444.20000 1.50332 -0.23828 0.01498
444.30000 1.49537 -0.26592 0.05813
444.40000 1.47310 -0.12430 -0.06058
444.50000 1.57390 0.22635 -0.04696
444.60000 1.54744 0.10926 0.02267
444.70000 1.49616 -0.11648 0.03025
444.80000 1.46638 -0.10562 -0.00660
444.90000 1.51608 0.14942 -0.00040
445.00000 1.53101 0.24695 0.04315
445.10000 1.47534 0.28185 0.01459
445.20000 1.48476 0.29032 -0.02021
445.30000 1.56685 0.18406 -0.03167
445.40000 1.51764 -0.08678 -0.00829
445.50000 1.47731 -0.16026 0.01151
445.60000 1.51407 -0.08021 0.04654
445.70000 1.51341 -0.10994 -0.02029
445.80000 1.51908 -0.01535 -0.04184
445.90000 1.52014 -0.01489 -0.04140
446.00000 1.48505 -0.00141 0.01411
446.10000 1.48599 0.11544 -0.01868
446.20000 1.46114 0.21118 0.00019
446.30000 1.50765 0.17276 -0.04983
446.40000 1.57816 0.03061 0.04048
446.50000 1.49975 0.02647 0.02437
446.60000 1.49662 0.07958 -0.03805
446.70000 1.46431 0.06639 0.00422
446.80000 1.52992 -0.13427 0.01681
446.90000 1.52771 -0.34058 -0.02961
447.00000 1.52152 -0.48030 0.01888
447.10000 1.46583 -0.35134 0.02373
447.20000 1.54503 -0.11137 -0.00778
447.30000 1.56238 -0.07597 -0.00117
447.40000 1.47424 0.16187 0.06922
447.50000 1.46282 0.22666 0.03319
447.60000 1.54376 0.14156 0.00038
447.70000 1.52285 0.17020 -0.03546
447.80000 1.53431 0.32552 0.03388
447.90000 1.46725 0.34386 0.00133
448.00000 1.56097 0.01074 -0.04365
448.10000 1.57997 -0.11654 0.00051
448.20000 1.47880 -0.03903 -0.00435
448.30000 1.50796 0.05136 -0.02028
448.40000 1.43916 0.06932 -0.02848
448.50000 1.55464 -0.03963 0.04183
448.60000 1.48360 0.00160 -0.03411
448.70000 1.51654 -0.04682 0.01092
448.80000 1.50921 -0.04917 0.01752
448.90000 1.54482 0.06412 -0.03052
449.00000 1.53400 0.05938 -0.02337
449.10000 1.56614 0.07942 0.05699
449.20000 1.49575 0.01477 -0.06537
449.30000 1.47387 -0.14537 -0.02812
449.40000 1.55845 -0.06898 0.04853
449.50000 1.52020 0.16958 0.04101
449.60000 1.53008 0.23828 -0.02540
449.70000 1.48607 0.02881 -0.02315
449.80000 1.49814 0.25053 0.00087
449.90000 1.56870 0.10619 0.01317
450.00000 1.50072 0.10061 -0.05431
450.10000 1.45833 0.15001 0.03573
450.20000 1.52867 0.27173 -0.08439
450.30000 1.52563 0.38409 -0.02142
450.40000 1.51710 0.20235 0.04203
450.50000 1.49489 0.16135 -0.06026
450.60000 1.50532 0.02976 -0.02067
450.70000 1.50997 -0.05765 0.01409
450.80000 1.50328 -0.18427 -0.04782
450.90000 1.51210 -0.22669 -0.04295
451.00000 1.52167 -0.17412 -0.01535
451.10000 1.45872 -0.10252 0.06334
451.20000 1.52368 -0.12355 -0.04319
451.30000 1.49503 0.08435 -0.02084
451.40000 1.49907 0.32287 0.03350
451.50000 1.47166 0.15380 -0.03074
451.60000 1.47738 0.03464 -0.00893
451.70000 1.50740 -0.13096 0.05114
451.80000 1.50508 -0.37155 -0.01241
451.90000 1.49978 -0.25991 -0.05288
452.00000 1.47801 -0.02199 0.00604
452.10000 1.54716 0.17141 0.04177
452.20000 1.54223 0.13190 -0.01887
452.30000 1.47368 -0.05343 0.02883
452.40000 1.54437 -0.20895 -0.00908
452.50000 1.48761 -0.07982 -0.03976
452.60000 1.44174 0.04244 0.00689
452.70000 1.55246 0.04668 -0.00193
452.80000 1.56603 -0.09614 -0.00290
452.90000 1.51368 -0.01769 -0.01523
453.00000 1.47501 0.08979 0.03801
453.10000 1.45250 -0.09014 -0.05138
453.20000 1.53906 0.03597 0.00937
453.30000 1.54415 0.24624 0.05974
453.40000 1.52558 0.37993 -0.06442
453.50000 1.47563 0.12000 -0.01274
453.60000 1.45460 -0.20897 0.02732
453.70000 1.51992 -0.20561 0.00793
453.80000 1.46205 -0.18452 -0.00418
453.90000 1.52757 -0.30605 0.02171
454.00000 1.46156 -0.34076 -0.05118
454.10000 1.50585 -0.34989 0.06767
454.20000 1.52651 -0.04170 -0.01125
454.30000 1.54664 0.25179 -0.00131
454.40000 1.49500 0.03447 0.03349
454.50000 1.48876 -0.29444 -0.01775
454.60000 1.53657 -0.18055 -0.00443
454.70000 1.51720 0.01017 -0.00909
454.80000 1.43051 0.01405 -0.00200
454.90000 1.53243 0.12034 0.00372
455.00000 1.58174 0.15304 0.01271
455.10000 1.50556 0.27860 -0.03315
455.20000 1.51527 0.27614 0.01590
455.30000 1.49741 0.09263 0.01379
455.40000 1.50148 -0.11325 0.02688
455.50000 1.44692 -0.00587 -0.02488
455.60000 1.51519 0.01024 -0.02640
455.70000 1.57764 -0.03812 0.00530
455.80000 1.50389 -0.11480 0.00111
455.90000 1.50049 -0.14403 0.01434
456.00000 1.58515 -0.17543 0.02116
456.10000 1.51995 -0.19252 -0.06101
456.20000 1.42602 -0.12220 0.00445
456.30000 1.49033 -0.09744 -0.08257
456.40000 1.55180 -0.02421 0.02650
456.50000 1.48507 0.09813 0.05003
456.60000 1.49299 0.09374 -0.00675
456.70000 1.48191 -0.03238 -0.01565
456.80000 1.49396 -0.10871 0.04576
456.90000 1.52504 -0.06087 0.02158
457.00000 1.47009 0.07722 -0.01601
457.10000 1.47719 0.10517 0.00584
457.20000 1.54067 0.11559 -0.04197
457.30000 1.52820 0.19032 -0.02833
457.40000 1.43011 0.23824 0.04187
457.50000 1.51177 0.17301 -0.00444
457.60000 1.57236 -0.00420 0.00163
457.70000 1.56002 -0.14546 0.01404
457.80000 1.52753 -0.16144 -0.01186
457.90000 1.48255 -0.04767 0.05141
458.00000 1.48162 0.07973 0.01861
458.10000 1.52754 0.01154 -0.07480
458.20000 1.51905 0.00345 0.03239
458.30000 1.55210 0.07776 0.05349
458.40000 1.48402 0.09700 -0.09890
458.50000 1.51624 -0.05888 0.08791
458.60000 1.56884 -0.02829 0.04393
458.70000 1.53923 -0.05371 -0.08302
458.80000 1.49359 0.08534 0.05586
458.90000 1.54521 -0.06777 -0.01429
459.00000 1.53077 -0.16118 -0.03625
459.10000 1.45712 0.03957 0.05895
459.20000 1.54311 0.18670 -0.00414
459.30000 1.47220 0.17293 -0.03512
459.40000 1.55553 -0.00606 0.04007
459.50000 1.52139 -0.17078 -0.06272
459.60000 1.48265 -0.15712 0.04585
459.70000 1.53206 0.01512 -0.01988
459.80000 1.49559 0.13432 0.00761
459.90000 1.47755 0.10299 0.00566
460.00000 1.56150 0.07555 0.00141
460.10000 1.50211 -0.02891 0.03831
460.20000 1.47332 -0.06887 -0.02266
460.30000 1.52329 -0.03351 0.00506
460.40000 1.52264 0.18985 0.02739
460.50000 1.47254 0.29888 -0.00670
460.60000 1.47665 0.04331 -0.01332
460.70000 1.53185 -0.25542 0.03325
460.80000 1.56292 -0.31314 -0.00971
460.90000 1.50115 -0.17787 0.00881
461.00000 1.48341 0.07965 0.03995
461.10000 1.54427 0.09652 -0.02381
461.20000 1.51757 0.11940 -0.02470
461.30000 1.50342 -0.00428 0.03839
461.40000 1.52376 -0.04352 0.04668
461.50000 1.50415 0.17661 0.00102
461.60000 1.47140 0.20574 -0.00969
461.70000 1.49591 0.27441 0.04704
461.80000 1.55787 0.13621 -0.07203
461.90000 1.44917 0.10182 0.01386
462.00000 1.44334 0.17832 0.00882
462.10000 1.54048 0.19772 -0.03919
462.20000 1.48671 0.11332 0.05721
462.30000 1.48174 0.04005 0.03129
462.40000 1.50612 -0.22367 -0.06272
462.50000 1.52462 -0.22043 -0.07694
462.60000 1.46771 0.10911 0.04865
462.70000 1.57455 0.36488 -0.00350
462.80000 1.49435 0.15990 0.01193
462.90000 1.54207 -0.13784 0.04099
463.00000 1.54296 -0.09694 0.00219
463.10000 1.53183 -0.05820 -0.01041
463.20000 1.48257 0.13987 0.04549
463.30000 1.55328 0.09853 -0.02107
463.40000 1.53888 0.03362 -0.05730
463.50000 1.49866 -0.15857 0.05921
463.60000 1.52514 -0.19041 -0.01914
463.70000 1.48429 -0.12978 0.04027
463.80000 1.51673 0.13726 -0.00037
463.90000 1.47344 0.24311 -0.01955
464.00000 1.55971 0.29263 0.00861
464.10000 1.53265 0.27463 0.06573
464.20000 1.46981 0.12803 0.01823
464.30000 1.46702 -0.06496 -0.02172
464.40000 1.52414 -0.09402 -0.02154
464.50000 1.52731 0.02980 0.01677
464.60000 1.48532 0.09751 -0.00523
464.70000 1.48191 0.10339 -0.07441
464.80000 1.52478 0.13269 0.00331
464.90000 1.49671 -0.01933 -0.05484
465.00000 1.51317 -0.09161 0.02586
465.10000 1.42771 0.09474 0.03774
465.20000 1.49145 0.18635 0.01787
465.30000 1.57573 0.13470 -0.06563
465.40000 1.53061 -0.01973 0.06137
465.50000 1.49777 -0.05257 -0.03116
465.60000 1.52035 0.04988 -0.02931
465.70000 1.57128 -0.05817 -0.02413
465.80000 1.44491 -0.16544 0.00067
465.90000 1.49061 -0.19913 0.02628
466.00000 1.51767 -0.11321 -0.01202
466.10000 1.54447 0.01771 -0.00615
466.20000 1.50574 0.17135 -0.01783
466.30000 1.48782 0.25489 0.04430
466.40000 1.51693 0.19634 -0.02150
466.50000 1.57398 0.04025 -0.03819
466.60000 1.50885 -0.06457 0.02388
466.70000 1.48742 -0.00443 -0.02631
466.80000 1.51566 0.00212 0.03321
466.90000 1.55299 -0.07269 0.01371
467.00000 1.59570 -0.19434 -0.04910
467.10000 1.52543 -0.20433 0.02376
467.20000 1.41151 -0.05938 -0.05951
467.30000 1.50222 -0.06729 -0.02377
467.40000 1.57584 -0.15726 0.04035
467.50000 1.53435 -0.06077 0.00090
467.60000 1.45222 0.03366 -0.03643
467.70000 1.51010 0.17381 0.01750
467.80000 1.58725 0.06443 0.02972
467.90000 1.49571 -0.09463 0.02209
468.00000 1.51572 -0.25101 -0.03613
468.10000 1.51962 -0.20486 -0.03030
468.20000 1.55838 -0.04341 -0.03161
468.30000 1.50648 -0.00803 0.05213
468.40000 1.52136 -0.03643 0.05178
468.50000 1.55118 -0.11632 -0.07187
468.60000 1.48896 0.13847 -0.02340
468.70000 1.47973 0.33500 0.03717
468.80000 1.50224 0.42326 0.02998
468.90000 1.54283 0.18413 0.00376
469.00000 1.50092 -0.14602 -0.01541
469.10000 1.46996 -0.02330 0.02054
469.20000 1.52861 0.06468 0.02410
469.30000 1.50411 0.12842 -0.01180
469.40000 1.49264 0.08730 -0.00300
469.50000 1.49073 -0.00825 -0.00047
469.60000 1.54365 -0.03284 0.03681
469.70000 1.51914 0.09566 0.04127
469.80000 1.47812 0.25318 -0.10010
469.90000 1.52814 0.19584 0.00286
470.00000 1.51369 0.05872 0.05953
470.10000 1.49088 -0.00027 0.01424
470.20000 1.53783 -0.08390 -0.04361
470.30000 1.55737 0.02060 0.02616
470.40000 1.55862 0.21707 0.05512
470.50000 1.46592 0.33021 -0.01428
470.60000 1.46814 0.21661 0.02934
470.70000 1.55319 0.16962 0.01822
470.80000 1.50676 -0.08287 -0.04288
470.90000 1.48630 -0.00222 0.00042
471.00000 1.56614 -0.00473 0.02083
471.10000 1.45298 0.05687 -0.00397
471.20000 1.50036 -0.07512 -0.03957
471.30000 1.53278 -0.06160 0.03375
471.40000 1.51682 -0.01771 0.04729
471.50000 1.56569 0.06378 -0.13274
471.60000 1.50635 0.19234 0.09390
471.70000 1.47231 0.21729 -0.04233
471.80000 1.50264 -0.08505 0.03549
471.90000 1.59008 -0.17533 -0.04545
472.00000 1.61091 -0.17941 0.07094
472.10000 1.49067 -0.16682 -0.01772
472.20000 1.47338 0.09713 -0.07137
472.30000 1.49912 0.21821 0.02740
472.40000 1.49468 0.06877 0.01710
472.50000 1.54710 0.05874 0.01601
472.60000 1.56547 0.03378 -0.01452
472.70000 1.46383 -0.01517 0.02252
472.80000 1.56102 -0.05095 -0.03122
472.90000 1.57643 0.11606 0.06035
473.00000 1.53426 0.12639 0.03691
473.10000 1.51381 0.08897 0.00310
473.20000 1.51617 0.10586 0.03063
473.30000 1.53153 0.10091 -0.00561
473.40000 1.55425 -0.01905 -0.04485
473.50000 1.54916 -0.12469 0.00744
473.60000 1.47378 0.01278 0.00851
473.70000 1.43585 0.16073 0.04450
473.80000 1.53158 0.02358 0.00426
473.90000 1.55533 -0.13073 0.01023
474.00000 1.41848 -0.14744 -0.05062
474.10000 1.48294 -0.24215 0.05382
474.20000 1.54314 -0.14758 0.02662
474.30000 1.52854 0.01748 0.01652
474.40000 1.45778 -0.04182 -0.01362
474.50000 1.52278 -0.04724 0.02926
474.60000 1.47336 0.03304 -0.04204
474.70000 1.50747 0.14241 0.05114
474.80000 1.53476 0.36541 -0.01919
474.90000 1.48357 0.36620 -0.00760
475.00000 1.51326 0.10722 0.00683
475.10000 1.50745 -0.09212 -0.00151
475.20000 1.52232 -0.04273 -0.02933
475.30000 1.47261 0.04062 -0.05486
475.40000 1.50911 0.18131 0.07261
475.50000 1.53053 0.15185 0.04295
475.60000 1.57404 0.14874 -0.01616
475.70000 1.44188 0.07173 -0.02615
475.80000 1.50233 -0.08989 0.03310
475.90000 1.55533 -0.17656 -0.03919
476.00000 1.48439 -0.18468 -0.02608
476.10000 1.51491 -0.16473 0.03888
476.20000 1.51303 -0.17858 -0.02385
476.30000 1.54649 -0.02178 -0.03391
476.40000 1.51538 0.16536 0.05269
476.50000 1.47475 0.16749 -0.04095
476.60000 1.51237 0.23306 -0.06547
476.70000 1.58878 0.24110 0.07247
476.80000 1.48558 0.04099 0.00125
476.90000 1.50613 -0.08172 -0.02826
477.00000 1.48391 0.10618 -0.06788
477.10000 1.45438 0.04708 0.00957
477.20000 1.59273 -0.09547 0.02942
477.30000 1.54935 -0.01820 0.04623
477.40000 1.48488 0.03214 -0.06163
477.50000 1.54149 0.15244 0.01176
477.60000 1.48994 0.34980 0.04435
477.70000 1.52650 0.16213 -0.08915
477.80000 1.54683 -0.08217 0.06570
477.90000 1.50183 0.02583 0.00317
478.00000 1.47592 0.02417 -0.04388
478.10000 1.53836 -0.00414 0.00381
478.20000 1.53743 -0.10098 0.03602
478.30000 1.54595 -0.04904 0.03725
478.40000 1.49355 0.11219 -0.04734
478.50000 1.50550 0.18832 0.01754
478.60000 1.49779 0.25433 -0.05112
478.70000 1.50172 0.18441 0.02931
478.80000 1.45372 0.08642 0.02800
478.90000 1.49743 -0.04352 -0.04595
479.00000 1.50919 -0.03549 -0.04067
479.10000 1.53574 0.14365 0.05997
479.20000 1.52837 0.14282 0.03205
479.30000 1.51656 0.15264 -0.06950
479.40000 1.46921 0.19474 0.00652
479.50000 1.47401 0.03457 0.04568
479.60000 1.50492 -0.13002 -0.02680
479.70000 1.53750 -0.32143 0.01384
479.80000 1.54680 -0.31718 0.02734
479.90000 1.52827 -0.38344 -0.01461
480.00000 1.48611 -0.13880 -0.01203
480.10000 1.48303 0.23531 0.01751
480.20000 1.55878 0.27362 0.00625
480.30000 1.48439 0.24984 -0.05969
480.40000 1.46041 0.28855 0.05497
480.50000 1.51737 0.13575 -0.00556
480.60000 1.48135 -0.03306 -0.04055
480.70000 1.46304 -0.07704 -0.06158
480.80000 1.50521 0.09357 0.05897
480.90000 1.53301 0.30873 0.02104
481.00000 1.57466 0.36334 -0.06745
481.10000 1.56369 0.02776 -0.03045
481.20000 1.56593 0.08188 0.02681
481.30000 1.48681 0.14284 -0.04156
481.40000 1.49103 0.04980 0.01997
481.50000 1.48472 -0.03953 -0.01983
481.60000 1.56038 -0.17690 0.00524
481.70000 1.54412 -0.23342 0.01398
481.80000 1.50828 -0.32716 0.00431
481.90000 1.50869 -0.13508 -0.01737
482.00000 1.50260 -0.01169 0.03912
482.10000 1.53279 -0.10130 -0.03107
482.20000 1.54278 -0.08471 -0.03780
482.30000 1.51394 -0.13348 0.04568
482.40000 1.47666 -0.20138 0.01405
482.50000 1.52750 -0.24435 -0.08648
482.60000 1.49652 -0.05690 0.01579
482.70000 1.55698 -0.22603 0.01965
482.80000 1.47129 -0.24051 0.05428
482.90000 1.46624 -0.03192 0.01074
483.00000 1.52983 0.17394 -0.00707
483.10000 1.46753 0.20629 -0.02801
483.20000 1.50766 0.27080 0.00781
483.30000 1.53610 0.32122 0.00609
483.40000 1.44517 0.08092 -0.01607
483.50000 1.50963 -0.08837 0.01089
483.60000 1.47088 -0.19310 0.01944
483.70000 1.54776 -0.30529 -0.02323
483.80000 1.53083 -0.03265 -0.01178
483.90000 1.51590 -0.04654 -0.00016
484.00000 1.53319 -0.11730 0.00278
484.10000 1.54381 0.04833 0.01536
484.20000 1.51235 0.13037 -0.01023
484.30000 1.53178 -0.11039 0.00772
484.40000 1.46581 -0.11626 -0.00295
484.50000 1.50305 -0.05141 0.02809
484.60000 1.48522 0.02899 -0.04763
484.70000 1.50643 -0.06712 -0.04009
484.80000 1.46251 0.00290 0.02885
484.90000 1.47760 -0.00095 -0.01308
485.00000 1.52934 0.02118 -0.08030
485.10000 1.54868 -0.14504 0.00653
485.20000 1.48601 -0.27450 0.07678
485.30000 1.55091 -0.13698 -0.05173
485.40000 1.48400 0.02269 0.02825
485.50000 1.49860 0.08859 0.05258
485.60000 1.52948 0.08700 -0.06306
485.70000 1.54851 -0.05140 0.03999
485.80000 1.50251 -0.06854 0.02020
485.90000 1.53123 -0.04757 -0.08787
486.00000 1.50217 0.03364 -0.03181
486.10000 1.53434 0.16465 0.00104
486.20000 1.51028 0.13427 0.02798
486.30000 1.50230 -0.09387 -0.07151
486.40000 1.50069 -0.05459 -0.01469
486.50000 1.48914 0.21738 0.07375
486.60000 1.51419 0.26666 0.00761
486.70000 1.53005 -0.00171 -0.04231
486.80000 1.60403 -0.00372 -0.01842
486.90000 1.47157 0.04692 -0.00293
487.00000 1.49493 0.12343 0.02128
487.10000 1.50009 0.28352 -0.01538
487.20000 1.53377 0.21967 0.00534
487.30000 1.54414 0.14276 0.00410
487.40000 1.57642 0.02018 -0.07942
487.50000 1.46058 0.09671 0.06099
487.60000 1.52419 0.01717 0.01759
487.70000 1.51863 0.04919 -0.05373
487.80000 1.48641 -0.03493 -0.00554
487.90000 1.50245 -0.05451 0.01065
488.00000 1.55158 -0.06121 -0.01333
488.10000 1.50364 0.02998 0.01198
488.20000 1.51329 0.41991 0.04320
488.30000 1.54438 0.46810 -0.02535
488.40000 1.50355 0.18941 -0.00681
488.50000 1.47252 -0.10757 0.04004
488.60000 1.52639 -0.01816 -0.03168
488.70000 1.47775 0.11457 -0.01113
488.80000 1.49148 -0.00789 0.00990
488.90000 1.51820 -0.03038 0.00803
489.00000 1.52764 0.04833 -0.00498
489.10000 1.52783 -0.02236 -0.00792
489.20000 1.51745 -0.06721 -0.01215
489.30000 1.50366 -0.00167 -0.00848
489.40000 1.49665 0.02241 0.01754
489.50000 1.53362 0.05760 -0.01503
489.60000 1.52939 -0.00613 -0.01871
489.70000 1.52424 -0.04314 0.05375
489.80000 1.47816 0.11970 0.08750
489.90000 1.52564 -0.00897 -0.06256
490.00000 1.55424 -0.08399 0.01165
490.10000 1.49803 -0.07267 -0.01070
490.20000 1.53042 -0.12136 0.03247
490.30000 1.52944 -0.12891 -0.01288
490.40000 1.49210 -0.07601 0.01546
490.50000 1.50094 -0.02654 0.05596
490.60000 1.50284 -0.09875 0.04207
490.70000 1.55025 -0.06542 -0.02936
490.80000 1.50694 0.19988 0.02332
490.90000 1.54703 0.26732 -0.02186
491.00000 1.50791 0.24564 0.04052
491.10000 1.55147 0.14578 0.02027
491.20000 1.55243 0.19414 -0.06459
491.30000 1.54029 0.11683 0.00219
491.40000 1.47585 -0.07030 0.03933
491.50000 1.46617 -0.09105 0.01568
491.60000 1.56738 -0.03133 -0.01574
491.70000 1.54403 -0.06371 -0.01567
491.80000 1.49783 -0.11766 -0.03523
491.90000 1.48562 -0.15959 0.07857
492.00000 1.55954 -0.08099 -0.09528
492.10000 1.51915 -0.18327 0.02072
492.20000 1.44741 -0.18944 -0.00355
492.30000 1.50960 0.03544 -0.08562
492.40000 1.50647 0.11475 0.04516
492.50000 1.55222 -0.01184 -0.05645
492.60000 1.51844 0.09400 -0.01162
492.70000 1.53631 -0.02639 -0.05073
492.80000 1.51032 -0.26982 -0.02142
492.90000 1.52664 -0.16476 -0.01228
493.00000 1.50810 0.04254 -0.01660
493.10000 1.51799 0.34457 0.05136
493.20000 1.47220 0.36498 0.02906
493.30000 1.56581 0.07701 0.06575
493.40000 1.54735 -0.24590 -0.06209
493.50000 1.50923 -0.17240 -0.03729
493.60000 1.52015 -0.04905 0.03203
493.70000 1.44718 0.23583 0.01215
493.80000 1.51973 0.25296 -0.02921
493.90000 1.48057 0.03205 -0.01974
494.00000 1.45688 -0.05264 0.04369
494.10000 1.47485 -0.06004 -0.01495
494.20000 1.55031 0.10034 -0.00230
494.30000 1.54759 0.14936 -0.00114
494.40000 1.50488 0.13934 -0.03245
494.50000 1.49213 0.05333 0.03441
494.60000 1.51493 0.01970 -0.00360
494.70000 1.48981 -0.05620 0.02726
494.80000 1.50669 -0.09837 0.03835
494.90000 1.46751 -0.07835 -0.00489
495.00000 1.50318 0.00915 -0.01203
495.10000 1.52351 0.13999 0.01628
495.20000 1.51697 0.49256 -0.04875
495.30000 1.49815 0.33099 0.05373
495.40000 1.51096 0.11901 0.05207
495.50000 1.54674 -0.01710 0.03780
495.60000 1.59371 -0.25866 -0.01801
495.70000 1.47379 -0.05365 0.01617
495.80000 1.51969 0.16357 -0.05470
495.90000 1.54710 0.24463 -0.00181
496.00000 1.47794 0.20944 0.03564
496.10000 1.51257 0.16443 0.01282
496.20000 1.54638 0.16957 0.00469
496.30000 1.50194 -0.10873 -0.01365
496.40000 1.51405 -0.36971 -0.01609
496.50000 1.51331 -0.15373 0.01695
496.60000 1.53153 0.06912 -0.08577
496.70000 1.50965 0.18683 0.02253
496.80000 1.53376 0.06005 0.02461
496.90000 1.49656 -0.04595 -0.06922
497.00000 1.48407 -0.08373 0.03495
497.10000 1.55172 -0.13706 0.03156
497.20000 1.46456 -0.01802 0.02266
497.30000 1.50271 -0.07624 0.01601
497.40000 1.52699 0.02215 -0.00364
497.50000 1.47979 0.01477 0.03912
497.60000 1.52258 -0.07928 -0.00681
497.70000 1.52544 -0.10019 -0.11475
497.80000 1.48193 -0.09206 0.00568
497.90000 1.47182 0.03298 0.02147
498.00000 1.54845 0.17279 -0.04288
498.10000 1.54359 0.19351 -0.02080
498.20000 1.45442 0.02521 -0.01401
498.30000 1.56943 -0.04085 0.01763
498.40000 1.51398 0.02650 -0.01141
498.50000 1.46004 0.10580 0.03813
498.60000 1.45101 -0.03526 -0.01737
498.70000 1.55895 -0.12894 -0.01404
498.80000 1.54364 0.00415 0.05090
498.90000 1.48298 0.05713 -0.00078
499.00000 1.51112 -0.03882 0.00696
499.10000 1.54424 -0.03643 0.00350
499.20000 1.51476 -0.06317 -0.01362
499.30000 1.52670 -0.14049 -0.03171
499.40000 1.46799 -0.21860 0.05668
499.50000 1.44766 -0.09483 0.01823
499.60000 1.52586 0.11229 -0.02425
499.70000 1.53757 0.16237 0.07822
499.80000 1.51118 0.06003 -0.01134
499.90000 1.51996 -0.02282 -0.01165
500.00000 1.56203 -0.26904 0.02450
