# t[ps]  x[nm]  y[nm]  z[nm]
0.00000 0.10305 0.02034 0.00004
0.10000 1.27587 0.05584 0.03614
0.20000 1.99736 -0.16103 -0.02502
0.30000 1.62550 -0.32697 -0.04453
0.40000 1.39791 -0.36098 0.07835
0.50000 1.45473 -0.27866 -0.01912
0.60000 1.63089 -0.35064 -0.01337
0.70000 1.55580 -0.18065 0.02849
0.80000 1.48557 -0.08062 -0.04205
0.90000 1.58445 -0.12314 0.00385
1.00000 1.54389 -0.26255 0.02581
1.10000 1.55049 -0.17108 0.03058
1.20000 1.57249 -0.14370 0.01604
1.30000 1.57170 0.07822 -0.02419
1.40000 1.52059 0.11307 -0.03562
1.50000 1.54954 0.14501 -0.01427
1.60000 1.58820 0.11859 0.05638
1.70000 1.55895 -0.01583 -0.00811
1.80000 1.56607 0.04709 -0.02756
1.90000 1.56970 -0.02368 0.04444
2.00000 1.56951 -0.14275 -0.01005
2.10000 1.54251 -0.27559 -0.03959
2.20000 1.56351 -0.34764 0.02815
2.30000 1.62704 -0.26460 0.01923
2.40000 1.57501 -0.04137 -0.00867
2.50000 1.57601 0.16987 0.03563
2.60000 1.53008 0.14768 0.05729
2.70000 1.54219 -0.14899 -0.01738
2.80000 1.54401 -0.34567 -0.04073
2.90000 1.54445 -0.34062 -0.03334
3.00000 1.59918 -0.13400 0.03153
3.10000 1.61109 -0.06296 0.01461
3.20000 1.45762 -0.06307 -0.06499
3.30000 1.51328 0.03669 0.04733
3.40000 1.58064 0.04406 -0.04024
3.50000 1.57299 0.20604 -0.01396
3.60000 1.51861 0.02106 0.04579
3.70000 1.59126 0.01946 0.00212
3.80000 1.56511 -0.16524 0.04273
3.90000 1.56192 -0.37281 -0.05118
4.00000 1.55904 -0.52692 -0.04995
4.10000 1.56762 -0.47812 0.05015
4.20000 1.55390 -0.09690 0.02294
4.30000 1.61154 -0.01150 -0.03885
4.40000 1.53401 0.03223 0.02096
4.50000 1.49527 -0.05728 -0.00334
4.60000 1.54782 -0.12962 -0.06052
4.70000 1.57324 -0.04395 -0.01806
4.80000 1.60081 0.12736 0.02099
4.90000 1.56340 0.09778 0.08849
5.00000 1.56324 -0.02326 -0.08414
5.10000 1.54185 0.10113 0.00109
5.20000 1.52312 0.19501 0.07343
5.30000 1.49633 0.16744 0.00635
5.40000 1.59776 -0.01280 -0.05198
5.50000 1.59766 -0.12396 0.02753
5.60000 1.54765 -0.32565 0.01080
5.70000 1.54232 -0.40246 -0.02209
5.80000 1.57233 -0.38953 -0.06054
5.90000 1.53417 -0.19108 0.05492
6.00000 1.54248 0.13457 -0.04636
6.10000 1.58714 0.23991 -0.01047
6.20000 1.59436 0.04346 0.00799
6.30000 1.56330 -0.24410 -0.02047
6.40000 1.54237 -0.26731 0.00195
6.50000 1.56424 -0.13039 -0.02657
6.60000 1.57187 -0.03996 0.01585
6.70000 1.57280 0.12323 0.01927
6.80000 1.52164 0.09128 -0.00295
6.90000 1.58602 -0.10869 0.03587
7.00000 1.57696 -0.09411 0.02739
7.10000 1.53801 -0.10834 -0.02323
7.20000 1.56918 0.04161 0.01855
7.30000 1.55514 0.13174 0.01877
7.40000 1.54464 0.16681 -0.06313
7.50000 1.52895 0.22947 -0.00087
7.60000 1.56464 0.26161 0.03078
7.70000 1.56152 0.07230 -0.00625
7.80000 1.54602 -0.29936 -0.00293
7.90000 1.53753 -0.35741 -0.05399
8.00000 1.56203 -0.00473 0.00884
8.10000 1.52720 0.16324 0.04949
8.20000 1.56012 0.22042 -0.05237
8.30000 1.53974 0.06759 0.02238
8.40000 1.57937 -0.05022 0.01004
8.50000 1.55412 -0.08967 -0.11622
8.60000 1.59509 -0.12923 0.00481
8.70000 1.56936 -0.13153 -0.02279
8.80000 1.54872 -0.06679 0.02932
8.90000 1.54967 0.04276 0.07599
9.00000 1.55375 0.05340 -0.03871
9.10000 1.50489 -0.10787 0.01319
9.20000 1.54742 -0.12954 -0.00786
9.30000 1.58789 -0.01589 -0.01532
9.40000 1.59184 -0.01832 -0.02632
9.50000 1.53374 -0.17196 0.00570
9.60000 1.51084 -0.22742 0.09820
9.70000 1.58313 -0.15665 -0.08748
9.80000 1.55139 -0.02748 0.01994
9.90000 1.59207 -0.16922 0.06129
10.00000 1.58070 -0.28786 -0.01874
10.10000 1.47320 -0.03116 -0.09872
10.20000 1.51683 -0.00594 0.12588
10.30000 1.60339 -0.09922 0.03894
10.40000 1.53137 -0.14582 -0.05970
10.50000 1.52352 0.02915 -0.02764
10.60000 1.56604 0.19843 0.01415
10.70000 1.58900 0.35407 0.08267
10.80000 1.52961 0.38896 -0.04599
10.90000 1.55290 0.31177 -0.04652
11.00000 1.53475 0.12012 0.03313
11.10000 1.54134 0.01818 0.03405
11.20000 1.55320 -0.04134 -0.00936
11.30000 1.61005 -0.00833 -0.03581
11.40000 1.49355 0.23004 -0.00551
11.50000 1.53309 0.25188 0.06257
11.60000 1.58503 0.12469 -0.03521
11.70000 1.59156 0.04457 -0.03941
11.80000 1.54337 0.11014 -0.00945
11.90000 1.57526 0.06746 0.04600
12.00000 1.57176 0.08180 -0.00627
12.10000 1.56323 -0.03314 -0.04951
12.20000 1.50873 -0.07315 0.00502
12.30000 1.56025 0.08036 0.00033
12.40000 1.54445 0.30985 -0.01061
12.50000 1.53060 0.27891 -0.06025
12.60000 1.57383 0.08260 0.07945
12.70000 1.54319 -0.11374 0.03314
12.80000 1.51741 -0.00765 -0.01240
12.90000 1.51951 0.10326 -0.00833
13.00000 1.55510 0.12509 0.03819
13.10000 1.57613 0.19147 -0.04419
13.20000 1.47986 0.18824 -0.02942
13.30000 1.58203 0.05098 -0.03476
13.40000 1.59850 -0.02929 0.02763
13.50000 1.58252 0.05592 0.00866
13.60000 1.54687 0.07254 -0.02436
13.70000 1.52491 0.02676 -0.03418
13.80000 1.54094 0.08677 0.02437
13.90000 1.59503 -0.02982 -0.04271
14.00000 1.56826 0.14884 0.01639
14.10000 1.53831 0.09178 0.02327
14.20000 1.49649 -0.18349 0.06737
14.30000 1.55059 -0.11879 -0.04759
14.40000 1.59250 -0.17888 0.03737
14.50000 1.56117 -0.07236 0.00280
14.60000 1.60460 0.11737 -0.03331
14.70000 1.54616 0.16850 -0.02127
14.80000 1.49260 0.08208 -0.02917
14.90000 1.50697 -0.07843 -0.05070
15.00000 1.62745 -0.18744 0.01447
15.10000 1.51508 -0.07100 0.04505
15.20000 1.52658 -0.07211 -0.03810
15.30000 1.55947 -0.02365 -0.04996
15.40000 1.62507 -0.02774 -0.01726
15.50000 1.57128 0.10598 0.06646
15.60000 1.55590 0.24131 0.01718
15.70000 1.52566 0.15512 -0.01290
15.80000 1.58807 0.11800 -0.04563
15.90000 1.55011 -0.06229 0.02383
16.00000 1.49993 -0.11435 0.01018
16.10000 1.54810 -0.10538 -0.01688
16.20000 1.59000 -0.01108 -0.02019
16.30000 1.56216 0.12443 0.04469
16.40000 1.52647 0.17561 -0.05199
16.50000 1.56707 0.21705 0.04834
16.60000 1.59324 0.13147 -0.01325
16.70000 1.59626 0.16198 0.04065
16.80000 1.52414 0.20805 0.02718
16.90000 1.53356 0.10595 -0.03943
17.00000 1.53965 -0.08142 0.00137
17.10000 1.55632 -0.22241 -0.02278
17.20000 1.57994 0.07778 -0.02397
17.30000 1.55242 0.31600 0.01326
17.40000 1.55326 0.34208 -0.00981
17.50000 1.60076 0.11724 -0.04154
17.60000 1.52614 -0.07146 -0.00045
17.70000 1.57541 0.05797 0.03625
17.80000 1.57411 0.15053 0.04307
17.90000 1.56003 -0.03491 -0.06294
18.00000 1.57607 -0.17504 0.07513
18.10000 1.50579 -0.22540 -0.01697
18.20000 1.57574 -0.20682 -0.08047
18.30000 1.61214 0.01771 0.02028
18.40000 1.59804 0.20266 0.06864
18.50000 1.51084 0.10848 -0.05111
18.60000 1.56719 0.09170 0.01364
18.70000 1.60328 0.15462 0.03623
18.80000 1.55497 -0.04055 0.04647
18.90000 1.56174 -0.07812 -0.06547
19.00000 1.56474 -0.01375 -0.00265
19.10000 1.52838 -0.10662 0.06094
19.20000 1.53868 -0.28103 0.04512
19.30000 1.59322 -0.33323 0.00249
19.40000 1.51146 -0.22666 -0.01252
19.50000 1.58016 -0.08787 0.01723
19.60000 1.57727 -0.01678 -0.00622
19.70000 1.51725 0.00123 -0.02832
19.80000 1.59385 0.12805 0.02481
19.90000 1.54205 -0.05871 0.03422
20.00000 1.57577 -0.20760 -0.04039
20.10000 1.49560 -0.16559 0.02674
20.20000 1.61443 0.11207 -0.06202
20.30000 1.61984 0.10733 0.01828
20.40000 1.52346 0.16094 0.00997
20.50000 1.55713 0.17455 0.03788
20.60000 1.61099 0.21681 -0.01621
20.70000 1.54131 0.02675 -0.02561
20.80000 1.48172 -0.16234 0.00367
20.90000 1.56825 -0.26315 -0.00035
21.00000 1.54050 -0.21093 -0.02161
21.10000 1.51376 -0.20867 -0.01989
21.20000 1.60968 0.01032 0.01905
21.30000 1.57495 0.12738 -0.03658
21.40000 1.58318 0.24570 0.05909
21.50000 1.53620 0.09118 0.02953
21.60000 1.50757 -0.09223 0.01710
21.70000 1.55099 -0.19696 -0.01111
21.80000 1.61657 -0.20463 0.00091
21.90000 1.54466 -0.13972 0.03042
22.00000 1.56131 -0.06549 0.01532
22.10000 1.59068 0.02354 -0.01172
22.20000 1.62498 -0.02492 -0.02116
22.30000 1.56545 -0.11133 0.00837
22.40000 1.59187 -0.09748 0.00035
22.50000 1.51770 0.02380 -0.00741
22.60000 1.54670 0.06563 -0.03490
22.70000 1.55051 0.12779 -0.01908
22.80000 1.57756 0.13383 0.09519
22.90000 1.59503 0.06837 0.02158
23.00000 1.60886 -0.09786 -0.01749
23.10000 1.54375 -0.11375 0.03331
23.20000 1.57585 -0.14948 -0.02969
23.30000 1.60101 -0.09337 -0.01018
23.40000 1.52805 0.11097 -0.02468
23.50000 1.50828 0.13599 0.02535
23.60000 1.59177 -0.09851 0.02892
23.70000 1.59571 -0.22279 -0.00892
23.80000 1.55288 -0.12810 -0.03762
23.90000 1.54834 -0.02353 0.05360
24.00000 1.52815 0.15868 0.02984
24.10000 1.52226 0.15183 -0.00696
24.20000 1.55970 0.29794 0.00104
24.30000 1.50901 0.19287 0.01900
24.40000 1.59594 -0.00486 0.02319
24.50000 1.52682 -0.22502 -0.05020
24.60000 1.50974 -0.35904 0.04511
24.70000 1.58057 -0.32601 0.06437
24.80000 1.56552 -0.22134 -0.06077
24.90000 1.56714 -0.02972 -0.00397
25.00000 1.57189 0.10006 0.05438
25.10000 1.53178 0.12436 -0.03593
25.20000 1.52454 0.16519 -0.02615
25.30000 1.61919 0.16700 0.01613
25.40000 1.57783 0.10114 0.03159
25.50000 1.50786 0.11528 -0.05390
25.60000 1.49312 0.10013 -0.04983
25.70000 1.60572 -0.01288 0.02815
25.80000 1.62360 -0.07429 0.01229
25.90000 1.52127 -0.01932 0.01497
26.00000 1.50173 0.12582 -0.06503
26.10000 1.59554 0.14545 0.06249
26.20000 1.51247 0.12953 0.04283
26.30000 1.60795 0.21423 -0.05676
26.40000 1.60681 0.35133 -0.01287
26.50000 1.55820 0.33907 0.04128
26.60000 1.53349 0.01184 -0.01861
26.70000 1.55498 -0.24584 -0.01819
26.80000 1.57060 -0.26237 0.02746
26.90000 1.53991 -0.10796 0.05523
27.00000 1.52439 0.05172 0.04582
27.10000 1.57703 -0.02064 -0.04449
27.20000 1.61730 -0.11140 0.01794
27.30000 1.52921 -0.01709 -0.04785
27.40000 1.54561 -0.05618 -0.00608
27.50000 1.55228 -0.07880 0.07173
27.60000 1.57897 -0.05976 -0.07070
27.70000 1.57791 -0.06147 -0.02288
27.80000 1.55023 -0.04487 0.01194
27.90000 1.52229 -0.09842 0.01811
28.00000 1.59884 -0.03811 -0.04823
28.10000 1.52607 -0.07433 0.03839
28.20000 1.51968 -0.02644 0.03042
28.30000 1.57720 0.01989 0.02714
28.40000 1.54473 0.00811 -0.03450
28.50000 1.50867 0.00403 0.00260
28.60000 1.55059 -0.07066 0.00161
28.70000 1.62444 -0.24089 -0.02110
28.80000 1.56034 -0.14421 0.01432
28.90000 1.49257 -0.07219 0.03381
29.00000 1.52375 0.05339 -0.02647
29.10000 1.61777 0.15960 -0.05221
29.20000 1.60632 0.14910 0.04542
29.30000 1.51038 0.27083 -0.05125
29.40000 1.54449 0.21396 -0.01631
29.50000 1.49259 0.02654 0.10738
29.60000 1.52720 -0.01265 -0.01310
29.70000 1.60729 -0.12770 -0.09646
29.80000 1.52876 -0.01835 0.04000
29.90000 1.56520 0.14177 0.01449
30.00000 1.60128 0.22020 -0.02403
30.10000 1.55185 0.26633 0.01041
30.20000 1.50901 0.23971 -0.00377
30.30000 1.55417 0.25783 -0.00190
30.40000 1.57996 0.25367 -0.04856
30.50000 1.54517 0.10115 0.01219
30.60000 1.52253 -0.07527 0.00151
30.70000 1.52089 -0.14648 0.00135
30.80000 1.61907 -0.17482 0.03542
30.90000 1.56358 -0.17516 0.00051
31.00000 1.57017 -0.16882 -0.00516
31.10000 1.60021 -0.16265 -0.08352
31.20000 1.52647 -0.22463 0.01142
31.30000 1.58203 -0.24265 -0.03427
31.40000 1.62007 -0.32835 -0.04514
31.50000 1.51237 -0.21554 0.02370
31.60000 1.49450 -0.13048 0.00401
31.70000 1.56842 0.08571 0.03637
31.80000 1.53276 0.08387 0.00146
31.90000 1.52488 -0.04485 -0.02656
32.00000 1.56166 0.06222 0.01630
32.10000 1.60163 0.23435 -0.02624
32.20000 1.52516 0.30178 0.03859
32.30000 1.48948 0.08737 -0.03642
32.40000 1.52734 0.00741 0.02612
32.50000 1.51400 -0.05667 -0.00014
32.60000 1.49677 -0.19073 0.04262
32.70000 1.60059 0.04471 -0.02560
32.80000 1.59320 0.06335 -0.03837
32.90000 1.56720 0.05151 0.00493
33.00000 1.52516 0.00528 0.02829
33.10000 1.55675 -0.02839 0.00650
33.20000 1.56921 -0.01784 -0.00892
33.30000 1.60479 -0.15450 -0.03687
33.40000 1.56668 -0.07003 0.06926
33.50000 1.53810 -0.05257 -0.00564
33.60000 1.53369 -0.16453 -0.00450
33.70000 1.57729 -0.15259 -0.04215
33.80000 1.53193 -0.19770 0.03300
33.90000 1.54444 0.06503 0.03119
34.00000 1.57110 0.21163 0.05003
34.10000 1.54226 0.07928 -0.08270
34.20000 1.55561 0.05095 -0.01866
34.30000 1.54848 -0.06950 0.01927
34.40000 1.57975 -0.21416 -0.01066
34.50000 1.57305 -0.18949 -0.04488
34.60000 1.55777 -0.02779 0.00753
34.70000 1.54878 0.04741 0.05608
34.80000 1.54224 0.10813 -0.05071
34.90000 1.52352 -0.07293 -0.01671
35.00000 1.56871 -0.11060 0.06425
35.10000 1.59174 -0.06154 0.02033
35.20000 1.53710 -0.13883 -0.02932
35.30000 1.56247 -0.16243 -0.00030
35.40000 1.50981 -0.09766 -0.00181
35.50000 1.55810 -0.18812 0.00374
35.60000 1.61327 -0.08751 -0.01722
35.70000 1.57422 0.18573 0.02670
35.80000 1.55654 0.36497 0.02504
35.90000 1.50942 0.23501 -0.04077
36.00000 1.56068 -0.16228 -0.00427
36.10000 1.56362 -0.30560 0.00213
36.20000 1.54956 -0.13652 0.03177
36.30000 1.54868 0.05818 -0.00806
36.40000 1.61355 0.26569 -0.00630
36.50000 1.61554 0.34651 -0.01918
36.60000 1.55264 0.08431 0.03594
36.70000 1.59620 -0.21371 0.08184
36.80000 1.57437 -0.23468 -0.04203
36.90000 1.57906 -0.26629 -0.02276
37.00000 1.52505 -0.11718 0.07360
37.10000 1.52659 0.02337 -0.00364
37.20000 1.51022 0.01612 -0.01884
37.30000 1.56899 0.09705 0.02853
37.40000 1.58854 0.22667 -0.03557
37.50000 1.51000 0.18933 -0.01452
37.60000 1.51519 0.11041 0.01945
37.70000 1.59892 -0.08751 0.00584
37.80000 1.55657 -0.27516 -0.01759
37.90000 1.56613 -0.19185 0.00915
38.00000 1.54839 -0.06829 0.05274
38.10000 1.60648 0.02272 -0.06214
38.20000 1.54760 0.11315 0.04916
38.30000 1.59464 0.34648 0.04242
38.40000 1.57367 0.33472 -0.06493
38.50000 1.55101 0.31364 0.00144
38.60000 1.53772 0.21968 -0.01919
38.70000 1.53031 -0.11703 -0.00156
38.80000 1.57372 -0.24824 0.05598
38.90000 1.55651 -0.20043 0.02192
39.00000 1.53060 -0.06185 -0.09130
39.10000 1.54727 -0.25245 0.00084
39.20000 1.60743 -0.23650 0.08610
39.30000 1.54562 -0.07355 0.01693
39.40000 1.51226 0.06948 0.02059
39.50000 1.59648 0.20033 0.03969
39.60000 1.62493 0.10024 -0.03307
39.70000 1.58448 0.03416 -0.02524
39.80000 1.56123 -0.06030 0.03718
39.90000 1.53559 0.04039 -0.00496
40.00000 1.57090 0.13085 0.00629
40.10000 1.51545 0.26397 0.03493
40.20000 1.58355 0.21920 -0.01413
40.30000 1.55269 -0.01949 -0.06645
40.40000 1.52002 -0.04276 0.00195
40.50000 1.50393 -0.09638 0.05505
40.60000 1.60631 -0.04252 0.03132
40.70000 1.54222 0.16904 -0.05250
40.80000 1.56323 0.26799 0.00479
40.90000 1.56217 0.24071 0.03577
41.00000 1.59577 0.09472 0.00621
41.10000 1.55799 0.15704 -0.00410
41.20000 1.58105 0.09973 -0.03770
41.30000 1.50322 0.04321 0.01878
41.40000 1.50962 0.13362 -0.02290
41.50000 1.52657 0.11133 0.04781
41.60000 1.63327 -0.02241 -0.00903
41.70000 1.56408 -0.11899 -0.01583
41.80000 1.58861 -0.03240 0.03924
41.90000 1.55273 0.20244 -0.01008
42.00000 1.58326 0.05212 -0.00983
42.10000 1.58143 -0.26611 0.01197
42.20000 1.56397 -0.32583 0.05494
42.30000 1.49919 -0.39029 -0.00984
42.40000 1.55302 -0.14832 -0.03464
42.50000 1.60625 0.07448 0.04452
42.60000 1.49904 0.09431 -0.01557
42.70000 1.53737 0.09220 -0.01023
42.80000 1.60695 -0.12428 0.02884
42.90000 1.55039 -0.15519 0.00616
43.00000 1.52321 -0.13522 -0.01635
43.10000 1.53314 -0.04895 0.05350
43.20000 1.59010 0.16533 0.00644
43.30000 1.52198 0.21641 -0.09728
43.40000 1.58169 0.16620 0.03729
43.50000 1.57312 -0.04833 0.06042
43.60000 1.54217 -0.09047 -0.09736
43.70000 1.55721 -0.06700 0.01355
43.80000 1.62473 -0.16384 0.05521
43.90000 1.54921 -0.05707 -0.03689
44.00000 1.54615 0.14059 -0.05747
44.10000 1.55130 0.20052 0.05265
44.20000 1.56687 0.24748 0.02024
44.30000 1.54308 0.15920 -0.00155
44.40000 1.53325 0.17312 -0.00157
44.50000 1.62142 0.09443 0.05761
44.60000 1.61865 -0.25826 -0.00309
44.70000 1.57408 -0.40597 -0.04300
44.80000 1.52541 -0.30671 -0.00493
44.90000 1.54078 -0.19393 0.02450
45.00000 1.55151 -0.03325 0.03079
45.10000 1.59002 0.38801 -0.00270
45.20000 1.53872 0.54238 0.02464
45.30000 1.56209 0.26437 -0.01702
45.40000 1.56097 -0.04533 -0.02880
45.50000 1.57382 -0.13584 0.01279
45.60000 1.55370 -0.18349 0.00187
45.70000 1.52514 -0.25664 -0.04149
45.80000 1.55180 -0.03797 0.08291
45.90000 1.56099 0.28616 -0.02918
46.00000 1.51494 0.07395 0.02785
46.10000 1.56535 -0.13964 0.01304
46.20000 1.56990 -0.14926 -0.00855
46.30000 1.59122 -0.18958 -0.00390
46.40000 1.56968 -0.03700 -0.04000
46.50000 1.55019 -0.06553 0.05177
46.60000 1.57918 -0.10228 -0.00685
46.70000 1.57432 -0.00080 -0.00322
46.80000 1.59123 -0.04282 0.03315
46.90000 1.55288 -0.03827 -0.04145
47.00000 1.56274 0.17457 -0.00156
47.10000 1.59155 0.27233 0.04726
47.20000 1.53515 0.16626 -0.02018
47.30000 1.57161 0.09921 -0.02901
47.40000 1.62405 -0.10100 -0.01771
47.50000 1.52677 -0.24048 0.04537
47.60000 1.55743 -0.11472 -0.04425
47.70000 1.55246 -0.02871 0.02638
47.80000 1.55307 -0.06735 -0.04901
47.90000 1.55307 -0.14247 0.02523
48.00000 1.61024 -0.07606 0.00136
48.10000 1.51446 -0.23507 0.01083
48.20000 1.49688 -0.23123 0.00188
48.30000 1.55742 -0.16789 0.00988
48.40000 1.60277 -0.20281 0.03372
48.50000 1.56415 -0.23567 -0.06259
48.60000 1.45449 -0.11385 0.00198
48.70000 1.58987 -0.04100 -0.01890
48.80000 1.59876 -0.12112 0.00113
48.90000 1.53873 -0.17397 -0.05286
49.00000 1.57888 -0.10081 0.02693
49.10000 1.57687 0.12545 -0.00028
49.20000 1.53687 0.08102 0.00982
49.30000 1.52987 0.11452 0.00514
49.40000 1.54801 0.14206 -0.00506
49.50000 1.57079 -0.08097 0.02205
49.60000 1.54063 -0.24163 0.00466
49.70000 1.53908 -0.10272 -0.05666
49.80000 1.58452 -0.15848 -0.01702
49.90000 1.58507 -0.04703 0.04164
50.00000 1.54240 0.22871 0.00292
50.10000 1.53187 0.45262 -0.05306
50.20000 1.55086 0.36863 -0.01826
50.30000 1.60649 0.01005 0.04532
50.40000 1.57754 -0.09068 0.00211
50.50000 1.58332 -0.20169 -0.02931
50.60000 1.53780 -0.08644 -0.02654
50.70000 1.51929 -0.06857 0.02646
50.80000 1.55614 -0.16457 0.02473
50.90000 1.60537 -0.19796 -0.02363
51.00000 1.53216 -0.18819 0.01723
51.10000 1.49792 -0.10298 0.05603
51.20000 1.58099 0.08947 -0.03750
51.30000 1.54347 0.02199 -0.05917
51.40000 1.53572 0.05169 0.04141
51.50000 1.55325 -0.03596 0.04882
51.60000 1.59524 -0.12795 -0.02956
51.70000 1.54080 -0.03400 -0.03443
51.80000 1.55557 -0.04911 0.06006
51.90000 1.51832 -0.32210 -0.00035
52.00000 1.57067 -0.26564 -0.02072
52.10000 1.57450 -0.00609 0.02804
52.20000 1.53283 -0.12252 0.02374
52.30000 1.59595 -0.18497 -0.03285
52.40000 1.56190 -0.16902 -0.02376
52.50000 1.59503 0.09041 0.03678
52.60000 1.52122 0.14492 0.01330
52.70000 1.49692 -0.03512 0.05542
52.80000 1.55850 -0.11129 -0.03356
52.90000 1.63719 -0.08323 -0.03190
53.00000 1.51506 0.16259 0.02325
53.10000 1.56589 0.17069 -0.07671
53.20000 1.59558 0.12504 0.00540
53.30000 1.55102 0.12101 0.00859
53.40000 1.55258 0.03976 0.00012
53.50000 1.60287 0.01754 -0.00579
53.60000 1.56685 -0.00539 -0.01108
53.70000 1.53316 -0.06288 -0.01844
53.80000 1.57308 -0.14096 -0.03520
53.90000 1.61874 -0.17239 -0.00489
54.00000 1.52430 -0.13399 0.03439
54.10000 1.53987 -0.03414 0.04885
54.20000 1.51755 0.07492 -0.01439
54.30000 1.54037 0.06696 -0.03588
54.40000 1.53886 0.00196 -0.00859
54.50000 1.61793 0.03580 0.00686
54.60000 1.59098 -0.14856 -0.00452
54.70000 1.57485 -0.40357 0.07569
54.80000 1.49554 -0.35695 -0.05875
54.90000 1.55052 -0.08329 0.00220
55.00000 1.56955 0.15996 0.00291
55.10000 1.54604 0.22033 0.03157
55.20000 1.52080 0.24351 -0.05665
55.30000 1.52825 0.07652 0.05708
55.40000 1.54332 -0.02854 0.01107
55.50000 1.52934 -0.14492 -0.02933
55.60000 1.56135 -0.07749 0.00166
55.70000 1.57056 0.12386 -0.01226
55.80000 1.59818 0.16941 -0.00263
55.90000 1.56163 0.15576 -0.01884
56.00000 1.56162 0.09527 0.01605
56.10000 1.52804 0.08055 -0.00030
56.20000 1.56403 0.12622 -0.00925
56.30000 1.57243 0.12416 -0.01238
56.40000 1.60297 0.16938 0.00223
56.50000 1.55718 0.02822 -0.03893
56.60000 1.59611 -0.11201 0.05977
56.70000 1.55597 -0.12997 0.02574
56.80000 1.50754 -0.11282 -0.01406
56.90000 1.53910 0.03353 -0.05619
57.00000 1.59278 0.12085 -0.02790
57.10000 1.56262 -0.04343 0.00081
57.20000 1.53883 -0.10568 0.03847
57.30000 1.56622 -0.11066 -0.07711
57.40000 1.55929 -0.16959 0.01212
57.50000 1.56751 -0.11020 0.06763
57.60000 1.54899 0.15349 -0.03954
57.70000 1.53613 0.09930 0.01018
57.80000 1.59037 -0.15721 0.02959
57.90000 1.60111 -0.17782 -0.02426
58.00000 1.55616 -0.02690 -0.04743
58.10000 1.58905 0.11817 0.04395
58.20000 1.55888 0.21241 -0.01371
58.30000 1.49302 0.25040 -0.03115
58.40000 1.58961 0.01194 0.04637
58.50000 1.62663 -0.07594 -0.03561
58.60000 1.53961 0.09009 -0.01952
58.70000 1.55038 0.00718 -0.01317
58.80000 1.56069 -0.12148 0.00767
58.90000 1.51400 -0.05257 0.03144
59.00000 1.56553 -0.00776 -0.09348
59.10000 1.59493 0.13894 -0.01323
59.20000 1.50118 0.06176 0.03763
59.30000 1.50958 -0.10993 0.02498
59.40000 1.58117 -0.00696 -0.08703
59.50000 1.56576 -0.00494 0.03452
59.60000 1.57838 0.20724 0.04689
59.70000 1.56254 0.13910 -0.02291
59.80000 1.53308 -0.09891 -0.04782
59.90000 1.50995 -0.10359 0.02725
60.00000 1.58056 0.06639 -0.06762
60.10000 1.53725 0.09121 -0.00628
60.20000 1.54054 0.15692 0.06832
60.30000 1.60235 0.21542 -0.03229
60.40000 1.55459 0.04734 -0.07107
60.50000 1.56153 0.01802 0.04681
60.60000 1.52914 0.02270 -0.02248
60.70000 1.57107 0.03831 -0.01989
60.80000 1.58564 0.03244 0.07869
60.90000 1.57548 0.01501 0.00121
61.00000 1.53045 -0.08179 0.03156
61.10000 1.58521 -0.07069 -0.03117
61.20000 1.58743 -0.03000 -0.03068
61.30000 1.56266 0.01411 0.00148
61.40000 1.54750 -0.06933 0.06499
61.50000 1.48577 -0.23145 0.00093
61.60000 1.54237 -0.25762 -0.09780
61.70000 1.53335 -0.21730 0.00789
61.80000 1.60624 -0.25637 -0.02423
61.90000 1.57670 -0.09228 0.01551
62.00000 1.53924 -0.00764 -0.04124
62.10000 1.53915 0.13277 -0.03960
62.20000 1.52584 0.07861 0.05921
62.30000 1.53224 0.04587 -0.02436
62.40000 1.54912 -0.08319 -0.03406
62.50000 1.52381 -0.05904 0.02481
62.60000 1.51895 0.04036 -0.01417
62.70000 1.57910 0.12373 0.02319
62.80000 1.59814 0.16716 -0.02627
62.90000 1.55228 0.21525 -0.01888
63.00000 1.53419 0.07227 -0.01078
63.10000 1.57525 0.01908 0.02042
63.20000 1.56442 0.01069 0.04616
63.30000 1.57108 -0.16732 0.00064
63.40000 1.52465 -0.16535 0.03055
63.50000 1.61794 -0.07577 0.00203
63.60000 1.59033 -0.08960 -0.06291
63.70000 1.52170 -0.08936 -0.01827
63.80000 1.54700 0.02970 0.02950
63.90000 1.55003 0.04254 -0.03243
64.00000 1.54542 -0.00527 -0.03568
64.10000 1.54769 -0.08950 0.05788
64.20000 1.58020 -0.01490 -0.00972
64.30000 1.57160 -0.01923 -0.01718
64.40000 1.58263 0.09479 -0.01952
64.50000 1.53896 -0.00443 0.02102
64.60000 1.52225 0.02148 0.03912
64.70000 1.56154 -0.05758 -0.06136
64.80000 1.55325 -0.09075 0.05146
64.90000 1.53438 -0.17090 -0.03357
65.00000 1.58034 -0.22176 -0.04392
65.10000 1.53414 -0.29432 0.01749
65.20000 1.53568 -0.16695 0.03524
65.30000 1.57040 -0.01436 -0.04197
65.40000 1.56030 -0.07734 -0.07936
65.50000 1.52164 0.01146 0.01216
65.60000 1.59031 0.12926 0.00460
65.70000 1.54569 0.11088 0.02581
65.80000 1.55364 0.04562 0.01172
65.90000 1.58781 -0.06365 0.02167
66.00000 1.53617 -0.07615 0.05877
66.10000 1.55890 -0.10553 -0.03414
66.20000 1.57173 0.06261 0.01006
66.30000 1.58187 -0.08805 -0.01855
66.40000 1.56725 -0.35679 -0.02192
66.50000 1.55076 -0.35511 0.00582
66.60000 1.49644 -0.24323 -0.02394
66.70000 1.56604 -0.17829 0.00825
66.80000 1.57469 -0.17679 0.02831
66.90000 1.54074 0.02076 -0.02373
67.00000 1.52995 -0.05946 0.05111
67.10000 1.57715 -0.03606 0.00820
67.20000 1.58273 -0.04829 -0.06830
67.30000 1.61253 0.13211 0.03328
67.40000 1.52042 -0.01206 -0.01810
67.50000 1.51446 -0.13258 -0.00443
67.60000 1.57400 -0.23925 -0.00138
67.70000 1.58318 -0.26837 -0.01073
67.80000 1.54879 -0.25073 0.03112
67.90000 1.53976 -0.12908 -0.00469
68.00000 1.58010 -0.18658 0.01268
68.10000 1.55639 -0.18385 0.01482
68.20000 1.50591 0.01807 0.01766
68.30000 1.54632 0.14100 -0.12022
68.40000 1.56500 0.07097 -0.04199
68.50000 1.55121 0.03392 0.07825
68.60000 1.56090 0.11026 0.01288
68.70000 1.51182 0.30331 -0.01680
68.80000 1.50589 0.33838 0.00245
68.90000 1.54093 0.12484 -0.08171
69.00000 1.56160 -0.00049 0.08165
69.10000 1.52938 0.01992 0.03806
69.20000 1.50598 0.09928 -0.03771
69.30000 1.52342 0.09431 0.04077
69.40000 1.52273 0.03838 0.06517
69.50000 1.58285 -0.24421 -0.06001
69.60000 1.49180 -0.35736 0.04446
69.70000 1.58634 -0.29029 0.02234
69.80000 1.54840 -0.05645 -0.03093
69.90000 1.56602 -0.05110 0.02295
70.00000 1.53881 -0.17669 -0.05400
70.10000 1.55816 -0.22329 0.02112
70.20000 1.51351 -0.16501 0.05069
70.30000 1.52393 -0.08954 -0.04400
70.40000 1.63963 -0.01993 -0.03129
70.50000 1.57487 -0.21738 0.01926
70.60000 1.56917 -0.31523 -0.05338
70.70000 1.52151 -0.16844 -0.02730
70.80000 1.57598 -0.10597 0.09206
70.90000 1.57879 -0.03871 0.01479
71.00000 1.58518 0.08957 -0.01921
71.10000 1.53977 0.32998 0.02822
71.20000 1.52305 0.50883 0.10436
71.30000 1.53232 0.42749 -0.06074
71.40000 1.62222 0.11536 -0.07453
71.50000 1.56257 -0.11514 0.03627
71.60000 1.52975 -0.17158 -0.02381
71.70000 1.51301 -0.17830 -0.05601
71.80000 1.51673 -0.12770 0.06066
71.90000 1.52753 -0.10911 -0.04816
72.00000 1.61014 -0.03234 0.00863
72.10000 1.55603 0.14342 -0.03150
72.20000 1.53839 0.32616 -0.01263
72.30000 1.56556 0.33419 0.01098
72.40000 1.57116 0.05430 -0.01175
72.50000 1.57992 -0.10389 -0.02124
72.60000 1.56359 -0.10139 0.03269
72.70000 1.58447 -0.02578 -0.02989
72.80000 1.56033 -0.00582 0.00509
72.90000 1.58020 0.01018 -0.00757
73.00000 1.53765 0.03655 0.01361
73.10000 1.54423 -0.00734 0.00018
73.20000 1.49350 -0.03134 0.06338
73.30000 1.55754 -0.06199 0.04406
73.40000 1.60784 0.06300 -0.01411
73.50000 1.54994 0.13254 0.00318
73.60000 1.52178 0.00821 -0.00455
73.70000 1.53882 -0.08932 0.02501
73.80000 1.56906 -0.21863 0.00122
73.90000 1.56675 -0.05382 -0.00172
74.00000 1.57199 0.22073 0.01722
74.10000 1.55208 0.20402 -0.02894
74.20000 1.57423 -0.00699 0.02222
74.30000 1.61086 -0.14174 0.01967
74.40000 1.60450 -0.08318 0.03700
74.50000 1.51240 0.23373 -0.03424
74.60000 1.53251 0.36914 -0.02307
74.70000 1.54517 0.33790 0.01970
74.80000 1.55096 0.20962 0.00477
74.90000 1.52901 0.24497 -0.02329
75.00000 1.54097 0.05285 -0.00509
75.10000 1.57505 -0.13691 0.01768
75.20000 1.60990 -0.03353 0.03578
75.30000 1.57224 0.08123 0.07410
75.40000 1.53587 0.09387 0.01769
75.50000 1.55768 -0.03678 -0.03546
75.60000 1.56054 -0.11407 -0.01543
75.70000 1.58018 -0.00172 0.03750
75.80000 1.54253 0.13643 0.01166
75.90000 1.60065 0.06433 -0.02678
76.00000 1.54103 -0.28630 0.03107
76.10000 1.56250 -0.41321 0.05039
76.20000 1.52503 -0.22398 -0.00573
76.30000 1.56622 -0.02430 0.01380
76.40000 1.55611 0.16298 -0.03634
76.50000 1.58646 0.24468 0.02204
76.60000 1.53302 0.15512 -0.00539
76.70000 1.57682 -0.03797 0.02436
76.80000 1.57257 -0.11769 -0.05274
76.90000 1.54537 0.07893 -0.03302
77.00000 1.55056 0.19384 0.07695
77.10000 1.60246 -0.06502 0.00717
77.20000 1.47699 -0.16139 -0.07856
77.30000 1.53020 -0.09809 -0.00291
77.40000 1.59759 -0.03765 0.02250
77.50000 1.58500 -0.02405 0.00701
77.60000 1.54983 0.02490 -0.00790
77.70000 1.56455 0.11600 0.02461
77.80000 1.53247 0.15430 -0.03119
77.90000 1.53878 0.12921 -0.07183
78.00000 1.53989 0.08840 0.02107
78.10000 1.55856 0.14867 0.05364
78.20000 1.63341 0.10735 -0.02339
78.30000 1.56841 0.07037 0.03668
78.40000 1.53274 0.05939 0.01696
78.50000 1.53350 0.09162 -0.02415
78.60000 1.58986 0.28421 -0.05508
78.70000 1.59953 0.27118 0.03971
78.80000 1.50095 0.11097 -0.00053
78.90000 1.54007 -0.00092 -0.01134
79.00000 1.57663 0.15226 0.00497
79.10000 1.49549 0.24423 -0.01858
79.20000 1.58831 0.15890 -0.02409
79.30000 1.61113 0.04804 -0.04149
79.40000 1.57430 -0.09156 0.05002
79.50000 1.51793 -0.18056 -0.01317
79.60000 1.54285 -0.09885 -0.07130
79.70000 1.61249 -0.03533 0.07388
79.80000 1.60320 -0.09916 0.04158
79.90000 1.54575 -0.21457 -0.02498
80.00000 1.53389 -0.07223 -0.00942
80.10000 1.55688 0.02542 0.02976
80.20000 1.50880 0.03706 -0.00049
80.30000 1.59570 -0.16707 0.02227
80.40000 1.56416 -0.32699 -0.02025
80.50000 1.57506 -0.17323 -0.00669
80.60000 1.53224 0.02447 0.00718
80.70000 1.57402 0.01363 0.00834
80.80000 1.53017 0.04332 0.00059
80.90000 1.52146 0.13103 0.01637
81.00000 1.58347 0.11645 -0.05004
81.10000 1.54794 0.05698 0.03147
81.20000 1.54861 0.13763 0.00276
81.30000 1.53508 0.17986 -0.02313
81.40000 1.57909 0.24346 0.02203
81.50000 1.60806 0.19529 -0.01122
81.60000 1.56408 0.16014 -0.00521
81.70000 1.50478 0.01424 0.02411
81.80000 1.58415 -0.00656 0.03667
81.90000 1.55648 0.00108 0.02017
82.00000 1.48992 0.02808 0.03823
82.10000 1.58894 0.14910 -0.08452
82.20000 1.59901 0.21851 -0.02468
82.30000 1.52258 0.12123 0.05364
82.40000 1.52092 0.16184 0.00683
82.50000 1.55317 0.12450 -0.00910
82.60000 1.53656 0.10039 -0.00448
82.70000 1.56329 -0.12981 0.03869
82.80000 1.59994 -0.13516 -0.01652
82.90000 1.54679 -0.24052 -0.04351
83.00000 1.57452 -0.25985 0.09397
83.10000 1.54682 -0.13979 0.02218
83.20000 1.57857 0.17092 -0.02970
83.30000 1.56416 0.46717 -0.00723
83.40000 1.53479 0.20779 0.02623
83.50000 1.59301 -0.00723 0.04149
83.60000 1.53540 -0.20256 -0.08295
83.70000 1.55838 -0.35423 0.02589
83.80000 1.52559 -0.40327 0.00473
83.90000 1.54765 -0.17634 -0.01891
84.00000 1.57288 0.03062 -0.01637
84.10000 1.57640 0.05661 -0.04136
84.20000 1.54147 0.01024 0.02026
84.30000 1.55805 -0.21078 0.02520
84.40000 1.61040 -0.33823 0.01212
84.50000 1.50564 -0.17542 0.00168
84.60000 1.59961 -0.12428 -0.00026
84.70000 1.57999 -0.05363 -0.04304
84.80000 1.54279 0.01411 0.03539
84.90000 1.53931 -0.00322 -0.03080
85.00000 1.56077 -0.21139 0.00105
85.10000 1.58965 -0.27262 0.01650
85.20000 1.52105 -0.03968 -0.02297
85.30000 1.57354 0.05331 0.00038
85.40000 1.55561 0.10175 -0.04366
85.50000 1.55681 0.10835 0.04127
85.60000 1.60411 0.05681 -0.02098
85.70000 1.56237 0.17403 -0.01006
85.80000 1.46082 0.26431 0.04537
85.90000 1.55793 0.14538 -0.05015
86.00000 1.55510 -0.04276 -0.02133
86.10000 1.55514 0.01897 -0.00919
86.20000 1.54550 -0.06900 -0.05367
86.30000 1.53244 -0.16957 0.01551
86.40000 1.59488 -0.02469 0.00331
86.50000 1.59777 0.04996 -0.00672
86.60000 1.56017 0.09583 -0.03487
86.70000 1.48671 0.17828 -0.01603
86.80000 1.57969 0.19132 -0.04424
86.90000 1.52944 0.22155 -0.04882
87.00000 1.53402 -0.05424 0.00811
87.10000 1.57249 -0.27222 0.02844
87.20000 1.59335 -0.34609 -0.03327
87.30000 1.53749 -0.15508 -0.07021
87.40000 1.49693 0.10457 0.00416
87.50000 1.61679 0.19409 0.08610
87.60000 1.60123 0.08629 -0.00684
87.70000 1.55141 -0.00263 -0.09743
87.80000 1.54299 0.05452 0.03480
87.90000 1.53596 0.02615 0.06896
88.00000 1.54785 0.03746 -0.01053
88.10000 1.61465 0.14810 0.01731
88.20000 1.57071 0.24610 0.05161
88.30000 1.48739 0.23756 0.00039
88.40000 1.54512 0.13625 -0.00582
88.50000 1.53289 -0.04092 -0.01826
88.60000 1.56437 -0.09858 0.02286
88.70000 1.54654 0.05583 -0.02220
88.80000 1.54361 -0.04231 0.00737
88.90000 1.53881 -0.16245 -0.01662
89.00000 1.52352 -0.13078 -0.00495
89.10000 1.52098 -0.10701 -0.03637
89.20000 1.63556 -0.18816 -0.01731
89.30000 1.52505 -0.04173 0.01746
89.40000 1.53526 0.16853 0.02433
89.50000 1.55835 0.27800 -0.01894
89.60000 1.51041 0.10295 -0.04078
89.70000 1.54032 -0.04294 -0.01205
89.80000 1.63289 -0.00426 -0.01751
89.90000 1.56756 -0.05462 -0.04343
90.00000 1.56697 -0.00068 0.00708
90.10000 1.57855 -0.01621 -0.03022
90.20000 1.50340 -0.10323 -0.04920
90.30000 1.58354 -0.06536 -0.00253
90.40000 1.53570 0.00049 -0.01629
90.50000 1.56949 -0.13124 0.01641
90.60000 1.54910 -0.28401 0.00050
90.70000 1.56237 -0.25107 -0.07286
90.80000 1.56017 -0.08374 -0.01967
90.90000 1.55145 -0.00410 0.02473
91.00000 1.56824 0.02447 -0.05540
91.10000 1.52422 -0.00824 0.03983
91.20000 1.56683 -0.05079 -0.00145
91.30000 1.58472 0.12578 -0.03803
91.40000 1.50237 0.26240 0.03988
91.50000 1.54490 0.09767 0.02311
91.60000 1.59273 -0.13421 -0.06359
91.70000 1.52173 -0.10196 -0.00775
91.80000 1.55209 0.02563 0.01812
91.90000 1.58215 0.11182 -0.00235
92.00000 1.58853 -0.02545 0.01021
92.10000 1.54156 -0.16446 -0.01183
92.20000 1.52913 -0.32864 0.04881
92.30000 1.53066 -0.25404 -0.07484
92.40000 1.59914 -0.20163 0.00345
92.50000 1.61216 -0.29182 0.03977
92.60000 1.55947 -0.14097 -0.00409
92.70000 1.50698 0.02758 0.01344
92.80000 1.56557 0.19165 0.01386
92.90000 1.55727 0.04117 -0.01255
93.00000 1.57024 -0.04263 0.00561
93.10000 1.53709 0.00011 0.00252
93.20000 1.61828 0.05873 0.01178
93.30000 1.61558 0.08367 0.01343
93.40000 1.49959 0.09918 -0.00193
93.50000 1.50927 -0.01089 -0.00548
93.60000 1.61246 0.03730 -0.01248
93.70000 1.58704 -0.11907 0.05529
93.80000 1.57134 -0.17697 0.05514
93.90000 1.50237 -0.07369 -0.04227
94.00000 1.52456 0.16474 0.02376
94.10000 1.61448 0.23737 -0.01412
94.20000 1.56405 0.18333 -0.01130
94.30000 1.56071 0.01567 -0.01961
94.40000 1.58191 -0.16038 0.00505
94.50000 1.56300 -0.05072 0.01715
94.60000 1.52252 -0.09842 0.00471
94.70000 1.55466 -0.07058 -0.00631
94.80000 1.59018 0.01669 0.01945
94.90000 1.54235 -0.00457 0.03815
95.00000 1.54859 0.01604 -0.07358
95.10000 1.58857 -0.02570 0.01111
95.20000 1.63349 -0.12382 0.04477
95.30000 1.56488 -0.05019 -0.06729
95.40000 1.46803 0.02588 -0.02294
95.50000 1.52675 0.04920 -0.00982
95.60000 1.54154 -0.05672 0.01406
95.70000 1.57930 -0.02253 -0.00516
95.80000 1.55827 0.02785 -0.01102
95.90000 1.53602 0.20949 0.05763
96.00000 1.55965 0.12545 -0.03658
96.10000 1.56417 -0.13774 -0.03621
96.20000 1.52703 -0.08143 0.08130
96.30000 1.52178 0.00906 0.03561
96.40000 1.48090 0.03562 -0.04465
96.50000 1.59106 -0.04459 -0.00181
96.60000 1.58093 -0.01879 0.04766
96.70000 1.54878 -0.10216 -0.03913
96.80000 1.50913 -0.13476 0.02273
96.90000 1.58774 -0.04787 0.02520
97.00000 1.56800 -0.06232 -0.04741
97.10000 1.51832 0.02293 -0.03814
97.20000 1.62299 0.08551 0.00027
97.30000 1.54295 0.18439 -0.01488
97.40000 1.56982 0.07590 0.05654
97.50000 1.51748 0.05293 -0.04688
97.60000 1.48206 0.06509 -0.03046
97.70000 1.55910 0.06366 -0.00492
97.80000 1.62722 0.12602 0.06481
97.90000 1.56415 0.09846 -0.05349
98.00000 1.50626 0.12854 -0.01056
98.10000 1.57956 0.15473 0.02078
98.20000 1.55969 0.04564 -0.06899
98.30000 1.53471 -0.09353 -0.03283
98.40000 1.55517 -0.18482 0.03062
98.50000 1.56069 -0.16659 0.03602
98.60000 1.55735 -0.19059 -0.03019
98.70000 1.57048 -0.07748 -0.04168
98.80000 1.53821 0.02482 -0.01843
98.90000 1.54839 0.14860 0.06969
99.00000 1.55125 0.02039 0.00088
99.10000 1.53353 -0.09489 -0.01848
99.20000 1.55861 -0.17589 -0.01798
99.30000 1.54013 -0.23831 0.01504
99.40000 1.58915 -0.09934 -0.02442
99.50000 1.56311 0.02012 -0.00718
99.60000 1.50478 0.10546 0.05132
99.70000 1.56925 -0.05715 -0.00031
99.80000 1.54852 -0.15853 0.01110
99.90000 1.58409 -0.30607 -0.06692
100.00000 1.54750 -0.17617 0.02205
100.10000 1.53776 0.02791 -0.00944
100.20000 1.55111 -0.03260 -0.01485
100.30000 1.56009 -0.12926 -0.02050
100.40000 1.55437 -0.04512 -0.01866
100.50000 1.59282 0.04299 -0.06014
100.60000 1.54803 0.14720 0.02169
100.70000 1.52721 0.27140 -0.01624
100.80000 1.46579 0.21937 -0.01058
100.90000 1.55906 0.08438 0.03388
101.00000 1.65598 0.08278 -0.01707
101.10000 1.57342 -0.07755 0.04207
101.20000 1.49705 0.00831 -0.00016
101.30000 1.54396 0.21644 -0.00079
101.40000 1.53018 0.24846 -0.05614
101.50000 1.61701 0.32434 0.00273
101.60000 1.52911 0.15410 0.03194
101.70000 1.56544 -0.00894 0.01149
101.80000 1.54189 0.02990 0.00319
101.90000 1.60057 -0.01885 -0.02993
102.00000 1.52345 -0.22163 0.00190
102.10000 1.50861 -0.08802 0.00692
102.20000 1.56870 -0.06485 -0.00523
102.30000 1.54845 0.01252 -0.00125
102.40000 1.55349 -0.09781 -0.01109
102.50000 1.59824 -0.16363 0.01249
102.60000 1.57481 0.01391 -0.01182
102.70000 1.53362 0.01701 -0.00630
102.80000 1.57136 0.20501 0.03098
102.90000 1.59000 0.19104 0.02712
103.00000 1.55302 0.04033 -0.00900
103.10000 1.55082 -0.05254 0.01708
103.20000 1.57322 0.17254 -0.00977
103.30000 1.57124 0.19828 0.00866
103.40000 1.56011 -0.01766 -0.01836
103.50000 1.56774 -0.08761 -0.06332
103.60000 1.58743 -0.01623 -0.00931
103.70000 1.53476 0.02778 0.00507
103.80000 1.50506 0.03294 -0.00079
103.90000 1.61845 -0.09665 0.07062
104.00000 1.53672 -0.17182 -0.05097
104.10000 1.55445 -0.15792 -0.02186
104.20000 1.61333 0.02821 0.07313
104.30000 1.56774 0.01596 -0.02665
104.40000 1.57584 0.00551 -0.03846
104.50000 1.57096 -0.03472 -0.01488
104.60000 1.58376 0.09941 -0.01817
104.70000 1.53704 0.21103 -0.02777
104.80000 1.52553 0.17048 0.06490
104.90000 1.55239 0.09320 -0.01860
105.00000 1.58781 0.11790 0.01333
105.10000 1.54490 -0.00369 -0.00877
105.20000 1.57064 -0.17026 -0.04887
105.30000 1.53959 -0.07726 0.05245
105.40000 1.55983 0.02730 0.03105
105.50000 1.52356 -0.01222 -0.00228
105.60000 1.53177 -0.06784 -0.01258
105.70000 1.57724 0.01862 -0.00443
105.80000 1.62696 0.12499 0.04230
105.90000 1.55822 0.28389 -0.03774
106.00000 1.52227 0.26118 0.04333
106.10000 1.60966 -0.12466 0.00050
106.20000 1.61038 -0.36693 0.00650
106.30000 1.52848 -0.20260 0.00947
106.40000 1.52408 0.17042 -0.01245
106.50000 1.60330 0.26615 -0.06038
106.60000 1.61134 0.25386 0.05307
106.70000 1.52412 0.10475 0.00636
106.80000 1.54646 -0.00915 -0.04107
106.90000 1.56017 -0.05639 -0.01147
107.00000 1.53655 0.03764 0.00837
107.10000 1.54751 -0.00169 -0.01851
107.20000 1.56462 -0.10718 0.03344
107.30000 1.58784 -0.06580 -0.03671
107.40000 1.56210 -0.00435 0.00907
107.50000 1.57233 0.02005 -0.06348
107.60000 1.60698 0.15873 0.01776
107.70000 1.52770 0.08042 -0.00144
107.80000 1.56386 0.16191 -0.05506
107.90000 1.58102 0.09210 0.00510
108.00000 1.53773 0.06069 -0.01004
108.10000 1.53398 -0.02386 0.07156
108.20000 1.52769 -0.08201 -0.10281
108.30000 1.56166 -0.22304 0.00471
108.40000 1.55943 -0.14111 0.03075
108.50000 1.60899 0.00406 -0.03544
108.60000 1.57991 -0.00501 -0.01853
108.70000 1.51021 -0.11473 -0.00756
108.80000 1.51234 -0.09506 -0.01610
108.90000 1.58048 -0.17936 0.09487
109.00000 1.58181 -0.25747 -0.01594
109.10000 1.57628 -0.20137 -0.04838
109.20000 1.53695 -0.16460 0.03963
109.30000 1.56315 -0.09267 0.01175
109.40000 1.56909 0.09411 0.01248
109.50000 1.54661 0.29211 -0.02365
109.60000 1.57367 0.24771 0.01606
109.70000 1.55469 0.18352 0.04212
109.80000 1.49924 0.03315 -0.07949
109.90000 1.57112 0.03966 -0.00473
110.00000 1.57619 -0.04889 -0.04034
110.10000 1.57067 -0.18643 -0.01011
110.20000 1.57189 -0.03181 0.00739
110.30000 1.50677 -0.05624 0.01121
110.40000 1.54873 0.13704 0.05506
110.50000 1.60345 0.14118 -0.04157
110.60000 1.61253 0.07476 -0.03610
110.70000 1.53865 -0.01416 0.01827
110.80000 1.48903 0.05220 0.02439
110.90000 1.51548 0.06786 -0.04500
111.00000 1.56135 0.20885 0.02378
111.10000 1.53959 0.11218 -0.00107
111.20000 1.55554 -0.02561 0.00365
111.30000 1.54672 -0.04537 -0.00746
111.40000 1.53571 0.00711 -0.04338
111.50000 1.58657 0.11794 0.08616
111.60000 1.60048 0.08561 -0.06249
111.70000 1.55481 -0.00455 -0.01710
111.80000 1.54076 -0.09929 0.01676
111.90000 1.58310 -0.06463 0.00496
112.00000 1.58439 0.10269 -0.01533
112.10000 1.56933 0.00528 0.01624
112.20000 1.53282 -0.03315 0.01472
112.30000 1.54017 -0.09955 -0.01510
112.40000 1.54102 0.11984 -0.03546
112.50000 1.53989 0.15273 0.03261
112.60000 1.52211 0.10396 -0.01959
112.70000 1.60310 0.07839 -0.02809
112.80000 1.53371 0.11274 0.00106
112.90000 1.51838 0.03856 0.01497
113.00000 1.49253 0.00952 0.01836
113.10000 1.60752 0.13169 0.00136
113.20000 1.54710 0.19453 -0.01000
113.30000 1.64105 0.17305 -0.00325
113.40000 1.46886 0.07288 0.03320
113.50000 1.53085 -0.06680 0.00128
113.60000 1.62399 -0.01777 -0.08639
113.70000 1.59853 0.16721 -0.02839
113.80000 1.53876 0.10969 0.01412
113.90000 1.57011 -0.09123 -0.01433
114.00000 1.53135 -0.17613 -0.03767
114.10000 1.54744 -0.08569 0.00610
114.20000 1.58041 -0.10377 0.04079
114.30000 1.61318 0.07755 -0.02653
114.40000 1.52132 0.12108 0.00891
114.50000 1.54169 0.13769 0.04579
114.60000 1.56410 0.14399 0.00104
114.70000 1.53897 -0.10298 -0.04995
114.80000 1.57526 -0.28066 0.02751
114.90000 1.55979 -0.29804 0.00525
115.00000 1.55831 -0.19004 0.00716
115.10000 1.57174 0.00861 -0.00253
115.20000 1.55614 -0.01276 0.04911
115.30000 1.57144 -0.02589 0.02780
115.40000 1.58222 -0.30567 0.03831
115.50000 1.52613 -0.41865 -0.01262
115.60000 1.53051 -0.32215 0.01778
115.70000 1.56629 -0.12476 0.02100
115.80000 1.57463 -0.14936 0.01066
115.90000 1.59080 -0.11033 0.03316
116.00000 1.53375 0.03007 -0.03294
116.10000 1.56928 0.04898 0.00948
116.20000 1.58481 0.01510 -0.04812
116.30000 1.57559 -0.08625 -0.00609
116.40000 1.53322 -0.20741 0.02244
116.50000 1.53424 -0.03399 0.05150
116.60000 1.59441 0.14246 -0.00450
116.70000 1.61282 0.26988 -0.05652
116.80000 1.51518 0.10862 0.00691
116.90000 1.49148 -0.06550 0.08250
117.00000 1.56884 -0.21802 -0.04713
117.10000 1.64450 -0.12906 -0.05184
117.20000 1.54616 0.13469 0.04159
117.30000 1.51116 0.29297 0.01005
117.40000 1.61580 0.14355 -0.04541
117.50000 1.53706 -0.07421 0.01086
117.60000 1.55046 -0.31023 -0.01809
117.70000 1.58020 -0.27389 -0.00010
117.80000 1.55394 -0.05995 0.06026
117.90000 1.59500 -0.07213 -0.03877
118.00000 1.53946 -0.26011 -0.10447
118.10000 1.53042 -0.16913 0.03237
118.20000 1.53636 -0.11130 0.01603
118.30000 1.58324 -0.02830 -0.01067
118.40000 1.52423 -0.09816 -0.01859
118.50000 1.50088 -0.00837 0.00502
118.60000 1.56849 -0.04437 0.03430
118.70000 1.56199 -0.06649 0.04219
118.80000 1.55464 -0.08561 -0.01468
118.90000 1.63892 -0.17200 0.02045
119.00000 1.50191 -0.25884 0.02233
119.10000 1.53897 -0.31485 -0.00431
119.20000 1.56964 -0.21854 0.00847
119.30000 1.57505 -0.04704 -0.02633
119.40000 1.54509 0.02568 0.01305
119.50000 1.61061 -0.19085 0.03167
119.60000 1.57793 -0.05420 -0.01317
119.70000 1.50658 0.03904 -0.01443
119.80000 1.56885 0.20157 0.03771
119.90000 1.57801 0.28773 -0.03573
120.00000 1.56978 0.09481 0.02511
120.10000 1.56658 0.04103 -0.00462
120.20000 1.55191 -0.14370 -0.01150
120.30000 1.55878 -0.08791 0.00611
120.40000 1.54700 0.04224 0.03975
120.50000 1.49468 0.03864 0.03936
120.60000 1.53337 -0.02508 0.00828
120.70000 1.57045 0.04295 -0.00225
120.80000 1.55602 0.23250 -0.04417
120.90000 1.59779 0.12624 0.05095
121.00000 1.55656 0.00591 0.02842
121.10000 1.56739 -0.14895 -0.03290
121.20000 1.62307 -0.27576 -0.02846
121.30000 1.55012 -0.19273 -0.04074
121.40000 1.57846 0.01025 0.02915
121.50000 1.57573 0.21117 -0.06088
121.60000 1.60371 0.12923 0.05491
121.70000 1.53574 0.10815 0.03267
121.80000 1.54128 0.03663 -0.03192
121.90000 1.60433 -0.01644 -0.05149
122.00000 1.58843 -0.11464 0.10207
122.10000 1.55268 -0.07275 0.03730
122.20000 1.57973 -0.02288 -0.05805
122.30000 1.58008 0.04820 -0.00507
122.40000 1.53015 0.14332 0.00012
122.50000 1.53751 0.19856 -0.01596
122.60000 1.58239 0.06039 -0.01529
122.70000 1.57819 -0.01758 0.06780
122.80000 1.56350 0.01049 -0.04178
122.90000 1.54227 0.16103 -0.03584
123.00000 1.58757 0.13653 -0.01519
123.10000 1.60004 0.04919 -0.01783
123.20000 1.52352 -0.05535 0.06293
123.30000 1.52776 -0.09297 0.00707
123.40000 1.55189 0.16022 -0.02413
123.50000 1.54226 0.16811 0.02882
123.60000 1.57327 0.11311 -0.01189
123.70000 1.55910 0.12143 0.01040
123.80000 1.52384 0.15385 0.02123
123.90000 1.61660 0.00961 -0.04493
124.00000 1.58808 -0.10469 0.02234
124.10000 1.53684 0.03168 0.02126
124.20000 1.52320 0.10080 -0.03681
124.30000 1.56926 0.12732 0.01628
124.40000 1.60106 0.10624 -0.00998
124.50000 1.56221 0.19288 -0.01649
124.60000 1.49689 0.18390 0.03782
124.70000 1.50083 0.17984 -0.04047
124.80000 1.59746 0.09793 -0.04536
124.90000 1.54787 0.10399 0.04136
125.00000 1.58554 -0.07292 -0.03719
125.10000 1.51258 -0.23734 -0.04267
125.20000 1.50622 -0.16606 0.05285
125.30000 1.54262 -0.11384 0.00315
125.40000 1.55824 0.15401 0.04758
125.50000 1.60577 0.05033 -0.03597
125.60000 1.48932 0.05122 0.07358
125.70000 1.61615 0.14247 0.01176
125.80000 1.55610 0.00992 0.01401
125.90000 1.56953 -0.24791 -0.02064
126.00000 1.58945 -0.24995 0.06074
126.10000 1.56822 -0.05985 0.01545
126.20000 1.55954 0.04550 -0.01809
126.30000 1.55803 -0.02915 0.01049
126.40000 1.56508 -0.05838 0.02480
126.50000 1.46266 0.13164 0.01115
126.60000 1.56017 0.19551 -0.01180
126.70000 1.57368 0.14652 -0.00165
126.80000 1.53179 0.20383 -0.00947
126.90000 1.52131 0.09493 0.00667
127.00000 1.56274 -0.05985 0.03857
127.10000 1.60002 -0.24365 -0.02595
127.20000 1.59843 -0.13213 -0.03994
127.30000 1.60227 -0.21083 0.01192
127.40000 1.60758 -0.06686 -0.01376
127.50000 1.46753 0.11215 0.01096
127.60000 1.55592 0.13722 0.03576
127.70000 1.62163 0.05483 0.03307
127.80000 1.57022 -0.25753 -0.03584
127.90000 1.52330 -0.44712 -0.06764
128.00000 1.56991 -0.16975 0.01121
128.10000 1.57521 -0.08855 0.02233
128.20000 1.56352 0.07129 -0.03278
128.30000 1.56975 0.15136 -0.02316
128.40000 1.50537 0.13099 0.00493
128.50000 1.57484 0.04245 0.02498
128.60000 1.56057 -0.07387 -0.01149
128.70000 1.57533 0.00495 -0.01068
128.80000 1.54179 0.15681 -0.01079
128.90000 1.56006 0.33017 0.02881
129.00000 1.59975 0.20978 -0.05066
129.10000 1.64682 0.07895 0.01120
129.20000 1.60084 -0.03164 0.05726
129.30000 1.50971 -0.05038 -0.01923
129.40000 1.53319 0.13061 -0.02463
129.50000 1.55270 0.33458 0.01556
129.60000 1.55709 0.12858 0.01431
129.70000 1.62634 -0.00431 -0.02474
129.80000 1.52830 -0.18878 0.00334
129.90000 1.49143 -0.25309 0.00981
130.00000 1.58070 -0.20067 -0.00015
130.10000 1.54236 -0.15417 0.00580
130.20000 1.60384 -0.00858 -0.02137
130.30000 1.61692 0.23426 -0.01338
130.40000 1.52370 0.39307 0.03849
130.50000 1.56645 0.31308 -0.03345
130.60000 1.60603 0.01037 0.05033
130.70000 1.55179 -0.05091 -0.04710
130.80000 1.57282 0.13780 -0.02950
130.90000 1.60824 0.32078 0.02504
131.00000 1.55611 0.24080 0.01854
131.10000 1.52033 0.11158 0.04649
131.20000 1.54807 0.15176 -0.01631
131.30000 1.59082 0.04763 -0.02195
131.40000 1.56331 -0.08990 0.04181
131.50000 1.46539 -0.18575 0.01975
131.60000 1.54190 -0.17700 -0.04289
131.70000 1.59969 -0.16088 0.04414
131.80000 1.60353 -0.20978 0.05255
131.90000 1.57618 -0.15090 -0.04575
132.00000 1.55611 -0.09622 -0.03859
132.10000 1.56865 0.06896 0.03205
132.20000 1.56423 0.27443 0.04408
132.30000 1.57462 0.34639 -0.04274
132.40000 1.56466 0.37030 -0.00766
132.50000 1.53118 0.11381 -0.01286
132.60000 1.56087 -0.05364 -0.02873
132.70000 1.55021 -0.06121 0.06651
132.80000 1.56447 0.00761 0.04328
132.90000 1.57240 -0.02437 -0.06957
133.00000 1.54064 0.07259 0.05817
133.10000 1.53686 0.07536 0.01895
133.20000 1.58688 0.10717 -0.07959
133.30000 1.51273 -0.04414 0.09787
133.40000 1.51521 0.02454 0.06253
133.50000 1.50967 -0.01540 -0.08327
133.60000 1.57322 0.06119 0.04203
133.70000 1.60166 0.12844 -0.02194
133.80000 1.56672 0.28108 0.04772
133.90000 1.54019 0.17253 -0.01463
134.00000 1.52761 0.05362 0.02460
134.10000 1.51779 0.01153 0.01280
134.20000 1.57723 -0.00270 -0.01156
134.30000 1.54610 -0.00584 -0.04913
134.40000 1.51585 0.17172 0.01820
134.50000 1.59827 0.13053 0.05750
134.60000 1.53839 -0.01426 -0.02466
134.70000 1.57618 -0.14751 -0.06303
134.80000 1.58959 -0.19513 -0.01357
134.90000 1.53913 -0.24872 0.06454
135.00000 1.58516 -0.27360 -0.05814
135.10000 1.61014 -0.29679 0.03945
135.20000 1.53497 -0.21897 0.00671
135.30000 1.48502 -0.01328 -0.04434
135.40000 1.50383 0.04622 0.05270
135.50000 1.52887 -0.05229 -0.04077
135.60000 1.61384 -0.10220 -0.00286
135.70000 1.61848 -0.17696 0.06252
135.80000 1.49964 -0.23121 -0.03725
135.90000 1.54274 -0.10340 -0.02485
136.00000 1.56739 0.08845 0.01545
136.10000 1.58801 0.36636 0.02012
136.20000 1.52475 0.18496 -0.02658
136.30000 1.57914 -0.13614 -0.00752
136.40000 1.52657 -0.07768 -0.01500
136.50000 1.55639 -0.09048 0.01477
136.60000 1.58261 -0.14134 0.03133
136.70000 1.52733 -0.21545 -0.01437
136.80000 1.51149 -0.11269 -0.04452
136.90000 1.56209 0.11570 0.05303
137.00000 1.58076 0.01690 0.01876
137.10000 1.49074 -0.09235 -0.03305
137.20000 1.52344 -0.15850 -0.04533
137.30000 1.55798 -0.07484 0.05014
137.40000 1.55403 -0.11327 0.09058
137.50000 1.59067 -0.12687 -0.08676
137.60000 1.58691 0.03130 -0.02874
137.70000 1.55423 0.14459 0.10128
137.80000 1.52593 -0.07455 -0.05811
137.90000 1.54373 -0.03114 -0.06947
138.00000 1.57996 -0.05179 0.04546
138.10000 1.51743 -0.10155 0.06753
138.20000 1.53505 -0.15384 0.05338
138.30000 1.59184 -0.10502 -0.07497
138.40000 1.59409 -0.16065 -0.04941
138.50000 1.52480 -0.14922 0.05952
138.60000 1.52154 -0.08310 -0.04192
138.70000 1.61474 0.10169 -0.00696
138.80000 1.54526 0.18512 0.03529
138.90000 1.55844 0.16435 -0.03433
139.00000 1.53118 0.06970 -0.03810
139.10000 1.56310 -0.10396 0.01225
139.20000 1.60335 -0.22208 0.03111
139.30000 1.57464 -0.10337 -0.00412
139.40000 1.53421 0.04712 -0.03397
139.50000 1.52888 0.02021 -0.00315
139.60000 1.50733 -0.09820 0.06319
139.70000 1.52021 -0.00819 0.00070
139.80000 1.60625 0.02313 0.01729
139.90000 1.52508 0.02608 -0.00552
140.00000 1.54939 -0.02267 0.01112
140.10000 1.58309 0.03603 0.08737
140.20000 1.54036 0.10382 -0.01913
140.30000 1.54614 0.00975 0.01416
140.40000 1.54767 0.06982 0.05281
140.50000 1.56737 -0.02377 -0.03750
140.60000 1.56538 0.02064 0.02093
140.70000 1.49609 0.18079 0.01677
140.80000 1.56190 0.31734 0.03293
140.90000 1.60925 0.19396 -0.02836
141.00000 1.58914 -0.06260 -0.00897
141.10000 1.53772 0.03641 -0.00205
141.20000 1.57402 0.24958 0.00630
141.30000 1.54742 0.15469 0.02758
141.40000 1.53875 0.05876 0.00670
141.50000 1.51444 0.01313 -0.09590
141.60000 1.53631 0.12442 -0.01720
141.70000 1.59280 0.16126 0.05346
141.80000 1.51327 0.05529 0.00409
141.90000 1.56317 -0.19236 0.00831
142.00000 1.58597 -0.18604 -0.02971
142.10000 1.50209 -0.17376 0.03027
142.20000 1.52128 -0.14180 -0.01638
142.30000 1.62459 -0.18224 -0.04619
142.40000 1.58100 -0.20412 0.03973
142.50000 1.52291 -0.14827 0.00839
142.60000 1.54547 0.02506 -0.02571
142.70000 1.53604 0.15615 -0.01950
142.80000 1.52929 0.24395 0.01738
142.90000 1.60411 0.17183 -0.01258
143.00000 1.59465 0.14479 -0.04706
143.10000 1.52491 0.01955 0.02874
143.20000 1.55504 -0.15317 0.03800
143.30000 1.60279 -0.14413 -0.02074
143.40000 1.44177 0.05746 -0.03188
143.50000 1.55782 0.14726 0.01659
143.60000 1.59784 0.20040 -0.04499
143.70000 1.54170 0.10638 -0.01526
143.80000 1.58211 0.32556 0.01840
143.90000 1.55793 0.31059 0.00687
144.00000 1.54370 0.17295 0.06262
144.10000 1.60881 0.08622 0.03108
144.20000 1.56327 0.04647 -0.00328
144.30000 1.49835 0.13523 0.01893
144.40000 1.56188 0.05370 0.00393
144.50000 1.56269 -0.01224 0.00113
144.60000 1.56314 -0.05003 -0.07960
144.70000 1.52173 -0.02516 0.00080
144.80000 1.55207 -0.03835 0.02004
144.90000 1.56674 -0.01346 -0.05676
145.00000 1.53264 0.13898 -0.05023
145.10000 1.52542 0.15967 0.01449
145.20000 1.55556 0.05785 0.00605
145.30000 1.53166 0.05902 0.02429
145.40000 1.55336 0.01787 -0.00379
145.50000 1.56470 -0.09914 -0.02783
145.60000 1.60051 -0.03564 -0.02647
145.70000 1.49083 0.07280 0.03089
145.80000 1.49795 -0.05732 -0.02039
145.90000 1.56646 -0.28131 -0.00523
146.00000 1.56734 -0.18366 -0.02069
146.10000 1.53835 -0.01883 0.01448
146.20000 1.54045 0.12910 0.03960
146.30000 1.58069 0.19003 -0.00417
146.40000 1.62766 0.28048 -0.06795
146.50000 1.53308 0.19770 0.01804
146.60000 1.54047 0.26674 0.02249
146.70000 1.56590 0.18148 -0.06134
146.80000 1.56683 0.12301 -0.02633
146.90000 1.56922 0.08050 0.03917
147.00000 1.56545 0.01527 0.02264
147.10000 1.53092 -0.08117 -0.01216
147.20000 1.54496 0.10047 -0.04009
147.30000 1.58347 0.09849 0.04416
147.40000 1.55918 0.03953 -0.02188
147.50000 1.53520 0.00127 0.05366
147.60000 1.57045 -0.00145 -0.05234
147.70000 1.56506 -0.09733 0.01940
147.80000 1.59510 -0.07377 0.07149
147.90000 1.53824 -0.02369 -0.01024
148.00000 1.54477 -0.02908 -0.02771
148.10000 1.63466 -0.12587 -0.03835
148.20000 1.51962 -0.06486 -0.00148
148.30000 1.52042 -0.05714 -0.00299
148.40000 1.60148 0.04341 0.04470
148.50000 1.54646 0.01798 -0.02767
148.60000 1.54371 -0.00385 0.00320
148.70000 1.53122 -0.02035 0.02252
148.80000 1.61167 -0.01572 -0.00921
148.90000 1.58621 0.08685 0.02577
149.00000 1.53879 0.22772 -0.01218
149.10000 1.57855 -0.00606 -0.00931
149.20000 1.50875 -0.18474 -0.02663
149.30000 1.55235 -0.27366 0.00923
149.40000 1.57943 -0.21458 -0.00523
149.50000 1.63607 -0.21284 -0.05294
149.60000 1.50137 -0.06678 -0.01775
149.70000 1.56570 -0.02516 0.06855
149.80000 1.62118 0.04434 -0.06687
149.90000 1.54882 0.05914 -0.02894
150.00000 1.53421 0.05927 -0.05551
150.10000 1.53302 0.22435 0.05765
150.20000 1.55661 0.16766 0.00373
150.30000 1.56457 0.10744 -0.00768
150.40000 1.56488 0.00884 -0.02369
150.50000 1.51148 -0.14584 0.04712
150.60000 1.53486 -0.32253 -0.02825
150.70000 1.57424 -0.23802 -0.01328
150.80000 1.64053 0.01247 -0.02597
150.90000 1.51161 0.14417 0.08949
151.00000 1.53005 0.10910 -0.00827
151.10000 1.57287 0.00674 -0.01555
151.20000 1.55422 -0.01427 -0.03886
151.30000 1.58046 -0.03337 -0.01545
151.40000 1.55165 -0.02988 -0.03453
151.50000 1.51584 0.13033 0.02924
151.60000 1.50511 0.13569 -0.02078
151.70000 1.59640 -0.31876 -0.06682
151.80000 1.54504 -0.33499 0.04943
151.90000 1.58604 0.00209 0.06414
152.00000 1.59981 0.25490 -0.03979
152.10000 1.56369 0.32227 -0.01884
152.20000 1.52684 0.04998 -0.01532
152.30000 1.53500 -0.14858 -0.00739
152.40000 1.51156 -0.15480 0.01057
152.50000 1.59209 -0.07207 -0.07330
152.60000 1.60044 0.01455 0.03395
152.70000 1.60454 0.03822 0.00412
152.80000 1.55359 -0.13329 -0.00901
152.90000 1.53751 -0.15464 0.01252
153.00000 1.50621 0.02139 0.00486
153.10000 1.55675 0.19284 0.00846
153.20000 1.61770 0.11936 0.00625
153.30000 1.59525 0.08059 0.00809
153.40000 1.49426 0.10386 -0.02281
153.50000 1.49814 -0.02517 -0.01588
153.60000 1.51828 -0.14884 0.04412
153.70000 1.60010 -0.18465 -0.07797
153.80000 1.56934 -0.04948 0.03095
153.90000 1.57629 0.15198 0.00465
154.00000 1.56971 0.16383 -0.04363
154.10000 1.59483 -0.00444 -0.01272
154.20000 1.61483 -0.08394 0.00931
154.30000 1.57717 0.05712 0.06671
154.40000 1.52607 0.13793 -0.04385
154.50000 1.54253 0.12192 -0.10809
154.60000 1.60686 0.20014 0.01105
154.70000 1.52978 0.17001 0.05572
154.80000 1.53371 -0.04800 -0.05456
154.90000 1.51215 -0.03455 0.02144
155.00000 1.58658 0.08824 0.04461
155.10000 1.59993 0.19234 -0.06017
155.20000 1.49760 0.25091 0.01867
155.30000 1.53853 0.04639 0.04483
155.40000 1.57483 -0.16318 -0.01425
155.50000 1.60379 -0.13464 0.06518
155.60000 1.54250 -0.13239 -0.09276
155.70000 1.53824 -0.15880 -0.02615
155.80000 1.57905 -0.29308 0.05856
155.90000 1.59356 -0.26149 0.01373
156.00000 1.60768 -0.05580 -0.04292
156.10000 1.53808 0.05724 -0.01417
156.20000 1.52428 0.16876 -0.00622
156.30000 1.53272 0.16233 0.00865
156.40000 1.53489 0.18415 0.01268
156.50000 1.60727 0.03074 0.04664
156.60000 1.63690 -0.27082 -0.01547
156.70000 1.52707 -0.12508 -0.01256
156.80000 1.64293 0.04806 -0.01735
156.90000 1.54705 0.05401 -0.00896
157.00000 1.48490 0.12573 -0.06376
157.10000 1.51363 0.13948 -0.01632
157.20000 1.61862 0.03051 0.04965
157.30000 1.57974 -0.08304 0.03029
157.40000 1.53221 -0.10608 0.05642
157.50000 1.53191 0.00439 -0.00547
157.60000 1.58173 0.26334 -0.00063
157.70000 1.57315 0.34522 -0.00095
157.80000 1.55317 0.23354 -0.02517
157.90000 1.55908 0.04228 -0.02038
158.00000 1.56964 -0.06714 0.00953
158.10000 1.59170 -0.04907 0.00175
158.20000 1.61334 -0.14338 0.02299
158.30000 1.59094 -0.14760 0.01490
158.40000 1.53626 -0.09201 -0.06325
158.50000 1.54889 -0.10167 -0.01288
158.60000 1.52070 0.03152 0.05082
158.70000 1.62256 0.04992 0.03360
158.80000 1.59941 -0.03351 -0.06332
158.90000 1.54607 -0.27271 0.06704
159.00000 1.55465 -0.36136 0.01260
159.10000 1.52744 -0.22567 -0.05824
159.20000 1.55694 -0.01849 -0.00986
159.30000 1.52533 0.19488 -0.03321
159.40000 1.53082 0.21254 -0.01001
159.50000 1.53892 0.04417 -0.00740
159.60000 1.52306 0.03497 0.04732
159.70000 1.57553 -0.06102 -0.02262
159.80000 1.47963 -0.17358 -0.04205
159.90000 1.60275 -0.19345 0.00067
160.00000 1.60573 -0.07917 0.05365
160.10000 1.55666 -0.21692 -0.05446
160.20000 1.52878 -0.16056 -0.01007
160.30000 1.59486 0.02602 0.03979
160.40000 1.59950 0.03747 0.03518
160.50000 1.52523 0.19250 -0.06206
160.60000 1.60970 0.24006 0.01186
160.70000 1.50808 0.09601 0.04580
160.80000 1.49383 -0.08618 -0.02417
160.90000 1.57127 -0.21246 -0.00981
161.00000 1.62713 -0.25698 0.04236
161.10000 1.59598 -0.28245 -0.06491
161.20000 1.51570 -0.06239 -0.05757
161.30000 1.48648 -0.06443 0.00817
161.40000 1.54286 -0.18156 0.05727
161.50000 1.61865 -0.06241 -0.04221
161.60000 1.53399 0.17088 -0.00681
161.70000 1.54225 0.32073 0.01541
161.80000 1.51542 0.18664 0.01887
161.90000 1.53435 -0.15800 -0.01828
162.00000 1.58239 -0.18597 0.01054
162.10000 1.52105 -0.05487 0.03935
162.20000 1.55815 0.22639 -0.04732
162.30000 1.56818 0.29269 0.03427
162.40000 1.53765 0.18563 -0.00599
162.50000 1.52246 0.04944 -0.05834
162.60000 1.59045 -0.15661 -0.01394
162.70000 1.56585 0.00421 0.06671
162.80000 1.54238 -0.00998 -0.02119
162.90000 1.54761 -0.07843 -0.03599
163.00000 1.51397 -0.04183 0.01829
163.10000 1.58276 -0.08514 0.03145
163.20000 1.59652 -0.09827 -0.00021
163.30000 1.52751 0.19606 -0.00031
163.40000 1.52695 0.17181 -0.05165
163.50000 1.56234 0.07228 0.03507
163.60000 1.55511 0.08285 0.01131
163.70000 1.54372 -0.03255 0.00881
163.80000 1.55264 -0.12221 0.02875
163.90000 1.52045 0.00608 0.00629
164.00000 1.54808 0.14391 -0.00874
164.10000 1.54053 0.11468 -0.03142
164.20000 1.54170 0.18406 -0.07135
164.30000 1.55508 0.12985 0.06545
164.40000 1.56683 0.03875 0.01780
164.50000 1.55997 -0.13162 -0.07841
164.60000 1.51367 -0.26859 0.01955
164.70000 1.61111 -0.07794 0.04291
164.80000 1.58077 0.11790 0.00473
164.90000 1.53140 0.05822 -0.02753
165.00000 1.53939 -0.05319 -0.02400
165.10000 1.57022 -0.04002 0.06178
165.20000 1.55121 0.12221 0.01585
165.30000 1.58522 0.03636 -0.01776
165.40000 1.53640 -0.10529 -0.01458
165.50000 1.50033 0.01240 0.03574
165.60000 1.61176 0.21441 0.03149
165.70000 1.57445 0.03349 0.02255
165.80000 1.52030 -0.10003 -0.06514
165.90000 1.59464 0.13081 -0.04181
166.00000 1.57891 0.06029 0.07899
166.10000 1.47421 -0.09344 0.00351
166.20000 1.53216 -0.05557 -0.01183
166.30000 1.59430 0.21559 0.01976
166.40000 1.56406 0.12944 -0.00348
166.50000 1.51483 -0.08709 0.04750
166.60000 1.56868 -0.21608 0.01010
166.70000 1.56053 -0.25359 -0.07004
166.80000 1.55989 -0.09712 -0.02850
166.90000 1.59484 0.01555 0.03272
167.00000 1.53475 0.01263 -0.02569
167.10000 1.58014 -0.15153 -0.02245
167.20000 1.59387 -0.00721 0.03695
167.30000 1.54845 0.07503 -0.05692
167.40000 1.53085 -0.01018 -0.01022
167.50000 1.54995 0.01093 0.04563
167.60000 1.56000 -0.14635 -0.06405
167.70000 1.52881 -0.10837 0.00240
167.80000 1.55735 0.06559 0.01717
167.90000 1.56783 -0.04296 0.06553
168.00000 1.50512 -0.03421 -0.01700
168.10000 1.59549 0.22763 -0.01719
168.20000 1.49995 0.11807 0.02110
168.30000 1.57181 0.10943 0.00545
168.40000 1.55171 0.17936 -0.09613
168.50000 1.59009 0.21510 -0.01138
168.60000 1.54636 0.04582 0.04457
168.70000 1.53356 0.08038 -0.06096
168.80000 1.60230 0.09654 -0.05216
168.90000 1.56944 -0.05348 0.02976
169.00000 1.49320 -0.14468 0.01620
169.10000 1.52736 -0.12915 0.01871
169.20000 1.55042 -0.00916 0.00187
169.30000 1.54047 -0.06722 -0.01463
169.40000 1.61773 -0.02287 0.03555
169.50000 1.55407 0.05916 -0.01326
169.60000 1.52509 0.18920 0.04286
169.70000 1.53957 0.15157 -0.04767
169.80000 1.57095 0.03182 -0.04944
169.90000 1.57103 -0.07124 0.03520
170.00000 1.55986 -0.17745 -0.01044
170.10000 1.59017 -0.12395 0.00272
170.20000 1.54167 -0.01814 0.00767
170.30000 1.48561 0.25517 -0.03884
170.40000 1.59403 0.24984 -0.04267
170.50000 1.65136 -0.16850 0.02634
170.60000 1.55209 -0.18701 0.00129
170.70000 1.48502 0.08466 0.02426
170.80000 1.54678 0.02925 0.00868
170.90000 1.62351 -0.08291 0.03541
171.00000 1.62702 0.06475 -0.04847
171.10000 1.55502 0.09158 0.00068
171.20000 1.51146 0.05792 0.05529
171.30000 1.53244 -0.22288 -0.00036
171.40000 1.53707 -0.41583 -0.03353
171.50000 1.59894 -0.30598 -0.01422
171.60000 1.53186 -0.23590 0.05206
171.70000 1.55788 -0.08285 -0.01797
171.80000 1.59097 -0.16561 0.01664
171.90000 1.56711 -0.16697 0.01090
172.00000 1.57949 -0.15420 0.06515
172.10000 1.52006 -0.07494 -0.03146
172.20000 1.51738 -0.01795 0.00596
172.30000 1.63409 -0.01323 0.03078
172.40000 1.56482 -0.07375 0.05147
172.50000 1.52952 0.00809 -0.01975
172.60000 1.53101 -0.05279 0.02108
172.70000 1.58353 -0.05135 0.00857
172.80000 1.53451 0.00859 -0.08475
172.90000 1.58987 -0.19916 0.02206
173.00000 1.62550 -0.21841 0.01943
173.10000 1.47332 -0.16802 -0.03372
173.20000 1.52731 -0.09655 -0.02870
173.30000 1.61535 0.10669 0.00458
173.40000 1.63208 0.14849 -0.04848
173.50000 1.55504 0.17449 0.01592
173.60000 1.50617 0.03250 0.05692
173.70000 1.50482 -0.19924 -0.08382
173.80000 1.59907 -0.18074 0.02016
173.90000 1.59251 0.04791 0.03962
174.00000 1.53133 -0.04000 -0.08157
174.10000 1.59238 -0.00282 0.03244
174.20000 1.56616 0.21013 -0.09588
174.30000 1.54784 0.30411 0.01242
174.40000 1.57060 0.15522 0.01593
174.50000 1.58967 0.12360 -0.02813
174.60000 1.51906 0.00043 0.02551
174.70000 1.50642 -0.19728 0.00198
174.80000 1.56641 -0.13679 -0.01512
174.90000 1.54113 -0.08851 -0.01624
175.00000 1.52938 -0.17970 0.08460
175.10000 1.53459 0.01617 -0.06956
175.20000 1.50193 0.22555 0.01079
175.30000 1.56687 0.14075 0.02443
175.40000 1.59758 0.02651 0.04316
175.50000 1.57068 0.11507 -0.05331
175.60000 1.56451 -0.07863 -0.03144
175.70000 1.53755 -0.24875 0.08053
175.80000 1.56574 -0.22952 0.02490
175.90000 1.53858 -0.07793 -0.05944
176.00000 1.50297 -0.19239 -0.06019
176.10000 1.60423 -0.00756 0.00191
176.20000 1.59626 -0.07537 0.08777
176.30000 1.56193 -0.18890 -0.02827
176.40000 1.56274 -0.02730 -0.00971
176.50000 1.51140 0.20061 0.05268
176.60000 1.52204 0.07039 -0.01481
176.70000 1.59425 -0.08074 -0.01146
176.80000 1.56647 -0.19331 0.03709
176.90000 1.49502 -0.20965 0.00489
177.00000 1.53836 -0.18236 0.02102
177.10000 1.56752 -0.18299 0.02468
177.20000 1.51448 -0.15470 -0.00932
177.30000 1.60607 -0.16146 -0.00437
177.40000 1.55629 0.03592 0.01026
177.50000 1.57189 0.08977 0.03383
177.60000 1.52305 -0.12627 -0.04085
177.70000 1.51950 -0.36904 -0.00466
177.80000 1.53369 -0.49220 -0.00613
177.90000 1.59490 -0.25094 -0.01397
178.00000 1.49594 -0.02739 0.00523
178.10000 1.51883 0.04950 0.01300
178.20000 1.56501 -0.05211 0.00420
178.30000 1.64655 -0.04529 -0.01872
178.40000 1.56344 0.02953 0.07718
178.50000 1.51694 0.04916 0.01147
178.60000 1.55193 -0.01701 -0.01213
178.70000 1.58135 -0.01355 -0.01412
178.80000 1.53603 0.01132 -0.00390
178.90000 1.56707 0.02367 -0.00461
179.00000 1.53265 -0.06642 0.05515
179.10000 1.59327 -0.04402 0.01344
179.20000 1.55684 0.24638 -0.00498
179.30000 1.55233 0.21191 0.07203
179.40000 1.54357 0.08669 -0.03998
179.50000 1.61222 0.02704 -0.02902
179.60000 1.57041 0.01038 -0.00177
179.70000 1.54672 0.06158 0.02567
179.80000 1.58894 0.27004 0.06688
179.90000 1.57619 0.34472 -0.06108
180.00000 1.52432 0.24970 0.03536
180.10000 1.56372 -0.10789 0.06100
180.20000 1.61053 -0.22309 0.00926
180.30000 1.52361 0.09531 -0.00968
180.40000 1.54232 0.34238 -0.02152
180.50000 1.55884 0.19823 0.04250
180.60000 1.60253 -0.02085 0.04686
180.70000 1.56738 -0.09605 -0.00459
180.80000 1.55096 -0.11058 -0.04720
180.90000 1.54463 0.01453 0.04066
181.00000 1.54944 0.19810 0.00466
181.10000 1.51527 0.04726 -0.02552
181.20000 1.56711 -0.00812 0.03592
181.30000 1.58821 0.17229 -0.00317
181.40000 1.54222 0.34512 -0.01059
181.50000 1.55508 0.23806 -0.02342
181.60000 1.60379 -0.04784 -0.00365
181.70000 1.54824 0.00151 -0.01309
181.80000 1.56172 -0.01336 0.03106
181.90000 1.52195 0.05246 0.03270
182.00000 1.61180 0.07446 -0.09117
182.10000 1.56562 0.02675 0.06745
182.20000 1.55817 0.08398 0.02129
182.30000 1.52060 0.19152 -0.02840
182.40000 1.57379 -0.02190 -0.01083
182.50000 1.55933 -0.22589 0.00821
182.60000 1.55920 -0.39496 0.00556
182.70000 1.53455 -0.27816 0.05650
182.80000 1.55540 0.10092 -0.03544
182.90000 1.58238 0.17656 -0.03335
183.00000 1.59827 0.19516 0.02256
183.10000 1.58185 0.19584 0.01895
183.20000 1.51401 0.27661 0.02277
183.30000 1.54054 0.42028 0.00152
183.40000 1.56491 0.30912 -0.02144
183.50000 1.63516 0.16522 0.04102
183.60000 1.53225 0.03715 0.00978
183.70000 1.52701 -0.07824 0.03262
183.80000 1.54468 -0.05951 -0.00724
183.90000 1.57987 -0.16735 0.00912
184.00000 1.57922 -0.04412 0.04864
184.10000 1.60379 0.09682 -0.03980
184.20000 1.55894 0.06507 0.03982
184.30000 1.53025 -0.05526 0.02013
184.40000 1.51192 -0.05226 -0.08799
184.50000 1.58691 -0.28081 0.01397
184.60000 1.56243 -0.20977 0.03299
184.70000 1.52686 -0.16228 -0.03390
184.80000 1.55753 -0.07997 -0.02831
184.90000 1.54267 -0.06304 0.03112
185.00000 1.55950 -0.22640 -0.00711
185.10000 1.60613 -0.25918 -0.01044
185.20000 1.57134 -0.14585 -0.01591
185.30000 1.49544 -0.06461 0.03700
185.40000 1.53894 -0.09053 0.04942
185.50000 1.57513 -0.04584 -0.09950
185.60000 1.57601 0.12972 -0.06193
185.70000 1.53730 0.12276 0.03419
185.80000 1.47598 0.06700 0.00925
185.90000 1.50949 0.03828 0.04730
186.00000 1.57587 0.00793 -0.08375
186.10000 1.55457 -0.07448 -0.02070
186.20000 1.57352 -0.03409 0.06091
186.30000 1.42715 0.10645 0.01029
186.40000 1.52484 0.08146 -0.06894
186.50000 1.56706 -0.05798 -0.03488
186.60000 1.54293 -0.21493 0.04809
186.70000 1.54462 -0.30503 0.01590
186.80000 1.51533 -0.28981 -0.05306
186.90000 1.56482 -0.18493 0.04739
187.00000 1.55966 -0.19761 -0.03545
187.10000 1.47278 -0.08242 -0.04382
187.20000 1.53134 0.18676 0.00208
187.30000 1.55493 0.40458 0.04512
187.40000 1.59892 0.28500 -0.01255
187.50000 1.50435 0.04261 -0.02643
187.60000 1.51189 -0.05774 0.06302
187.70000 1.55908 0.03374 0.00090
187.80000 1.58052 0.08785 -0.03789
187.90000 1.54269 0.10485 -0.04090
188.00000 1.55962 0.01375 -0.01013
188.10000 1.54957 -0.15673 -0.00926
188.20000 1.57495 -0.17436 0.00465
188.30000 1.54985 -0.12394 -0.01378
188.40000 1.51663 -0.16268 0.05022
188.50000 1.60363 -0.09553 0.01062
188.60000 1.49011 0.01058 -0.04219
188.70000 1.52714 0.08665 -0.04639
188.80000 1.63725 0.19145 0.09465
188.90000 1.58980 0.00492 -0.03268
189.00000 1.51992 -0.02015 -0.01857
189.10000 1.53292 -0.09550 -0.01313
189.20000 1.59589 0.22383 -0.03108
189.30000 1.55218 0.31590 0.02301
189.40000 1.57435 0.25338 -0.01654
189.50000 1.56904 0.03155 0.03229
189.60000 1.50181 -0.08310 -0.04697
189.70000 1.57012 -0.04739 0.02653
189.80000 1.61042 0.04404 0.06129
189.90000 1.51108 0.00197 -0.01980
190.00000 1.52573 -0.04947 -0.02627
190.10000 1.59589 -0.07649 0.02267
190.20000 1.63953 -0.06928 -0.04126
190.30000 1.50176 -0.11657 -0.01592
190.40000 1.52057 -0.04203 0.01241
190.50000 1.58496 0.11220 -0.07241
190.60000 1.58041 0.17937 -0.02334
190.70000 1.58822 0.18467 -0.01453
190.80000 1.56764 0.08709 0.00140
190.90000 1.49851 0.14948 0.00290
191.00000 1.50367 0.20086 0.02465
191.10000 1.56650 -0.02927 -0.02889
191.20000 1.62184 -0.04720 0.02704
191.30000 1.60205 -0.08269 -0.01219
191.40000 1.52673 -0.07046 0.02558
191.50000 1.53680 0.07786 0.03733
191.60000 1.56955 0.26435 -0.05995
191.70000 1.57473 0.14674 0.00223
191.80000 1.51781 -0.06229 0.01329
191.90000 1.57169 -0.01720 -0.00032
192.00000 1.60523 0.05159 0.04005
192.10000 1.59241 0.13764 -0.02129
192.20000 1.55348 0.16668 -0.02794
192.30000 1.57121 0.09584 0.02603
192.40000 1.56491 -0.00155 0.04603
192.50000 1.58235 -0.08475 -0.00021
192.60000 1.58933 -0.11981 0.03606
192.70000 1.55375 -0.01754 -0.00423
192.80000 1.53605 0.15219 -0.00967
192.90000 1.55188 0.05063 -0.01449
193.00000 1.54197 -0.11860 -0.03671
193.10000 1.54228 -0.10200 0.01839
193.20000 1.55415 0.02421 0.06626
193.30000 1.56812 0.17456 -0.06003
193.40000 1.58270 0.22801 0.04567
193.50000 1.60379 0.11214 -0.01740
193.60000 1.56453 0.04271 -0.08127
193.70000 1.55919 -0.08441 0.03606
193.80000 1.56498 -0.09367 -0.03931
193.90000 1.53746 -0.18312 -0.03796
194.00000 1.51692 -0.02458 0.00413
194.10000 1.54670 0.23415 0.05787
194.20000 1.56236 0.04123 -0.04900
194.30000 1.54325 -0.09376 -0.01167
194.40000 1.52701 -0.18235 0.05482
194.50000 1.59903 -0.12081 0.01012
194.60000 1.56512 -0.20321 -0.01353
194.70000 1.55301 -0.25102 0.00882
194.80000 1.53980 -0.20145 0.00083
194.90000 1.54984 -0.02638 0.03185
195.00000 1.57820 0.08780 -0.05695
195.10000 1.53810 0.13168 -0.05302
195.20000 1.56354 0.04579 0.01784
195.30000 1.61053 0.01481 0.01777
195.40000 1.51731 -0.10415 -0.03593
195.50000 1.58629 0.03778 0.02586
195.60000 1.56823 0.11308 -0.01705
195.70000 1.52701 0.05860 0.02564
195.80000 1.54425 -0.09660 0.03746
195.90000 1.57872 -0.12965 -0.02719
196.00000 1.52889 -0.12160 0.02731
196.10000 1.54457 -0.07605 0.08399
196.20000 1.59616 -0.01091 0.00440
196.30000 1.57355 -0.03317 -0.03470
196.40000 1.55535 -0.11418 0.01582
196.50000 1.51591 -0.00049 -0.00884
196.60000 1.52148 0.01209 -0.04658
196.70000 1.52579 -0.12423 0.00063
196.80000 1.55963 -0.14254 -0.03656
196.90000 1.54883 -0.00259 -0.01193
197.00000 1.53824 -0.01346 0.03650
197.10000 1.50944 0.04842 -0.02365
197.20000 1.49830 0.06320 0.03228
197.30000 1.59203 -0.11621 0.00585
197.40000 1.55075 -0.24862 -0.02651
197.50000 1.54076 -0.28370 -0.03731
197.60000 1.56460 -0.32029 -0.04996
197.70000 1.64629 -0.26333 0.01434
197.80000 1.61525 -0.05179 -0.01469
197.90000 1.48370 0.21872 0.01069
198.00000 1.54379 0.18622 -0.01176
198.10000 1.56221 -0.03991 -0.00248
198.20000 1.56717 0.03658 0.02077
198.30000 1.52854 0.10917 0.01075
198.40000 1.58068 -0.05372 -0.01757
198.50000 1.63908 0.04928 0.03249
198.60000 1.57423 0.02857 0.02496
198.70000 1.53140 -0.10257 -0.01353
198.80000 1.49132 -0.03025 -0.02629
198.90000 1.60794 -0.21446 0.02716
199.00000 1.60686 -0.36770 -0.02313
199.10000 1.52511 -0.29738 -0.03738
199.20000 1.54588 0.13238 -0.00964
199.30000 1.55877 0.05272 0.00478
199.40000 1.58564 -0.07682 -0.05783
199.50000 1.55277 -0.16733 0.01184
199.60000 1.57936 -0.12681 0.02491
199.70000 1.57499 0.04946 -0.03267
199.80000 1.52145 0.07094 0.00376
199.90000 1.54979 -0.01561 0.04460
200.00000 1.55322 -0.15437 -0.03668
200.10000 1.60571 -0.15566 -0.03199
200.20000 1.58502 -0.11651 -0.03170
200.30000 1.50333 0.18684 0.05871
200.40000 1.52066 0.48452 -0.00008
200.50000 1.63692 0.33279 -0.01447
200.60000 1.59836 0.07065 0.07017
200.70000 1.52945 -0.18336 -0.02345
200.80000 1.55821 -0.28095 -0.02413
200.90000 1.60248 -0.14193 0.02345
201.00000 1.54856 0.00806 0.00681
201.10000 1.54780 0.14716 -0.02249
201.20000 1.55051 0.18402 -0.01684
201.30000 1.51839 -0.04475 0.01224
201.40000 1.54811 0.14539 0.02004
201.50000 1.55846 0.21923 0.00322
201.60000 1.58316 0.18362 -0.01354
201.70000 1.53875 -0.11372 0.00087
201.80000 1.61493 -0.16170 -0.03715
201.90000 1.54692 0.10362 0.02310
202.00000 1.49387 0.37240 0.00907
202.10000 1.58300 0.41066 0.03081
202.20000 1.56505 0.23093 -0.01097
202.30000 1.58444 0.02371 -0.08353
202.40000 1.55435 -0.04869 0.01398
202.50000 1.51074 0.09482 0.06318
202.60000 1.55887 0.12297 0.01265
202.70000 1.53980 0.11658 -0.08951
202.80000 1.55642 0.11444 0.00013
202.90000 1.55592 -0.04446 0.06506
203.00000 1.49181 -0.13852 0.00786
203.10000 1.59491 -0.09209 -0.07375
203.20000 1.57552 0.06528 -0.04392
203.30000 1.47520 0.10904 0.02991
203.40000 1.52644 -0.04885 -0.04681
203.50000 1.58717 -0.40176 0.02890
203.60000 1.55142 -0.27887 0.01094
203.70000 1.58617 -0.02694 -0.03469
203.80000 1.51852 0.19502 0.01959
203.90000 1.56137 0.15436 0.02065
204.00000 1.59509 0.34141 -0.02070
204.10000 1.58440 0.43267 0.00969
204.20000 1.55093 0.24027 -0.00623
204.30000 1.55381 0.04686 -0.00580
204.40000 1.55898 0.15837 -0.01476
204.50000 1.50646 0.09940 0.03669
204.60000 1.55583 0.00170 -0.00248
204.70000 1.64796 -0.06195 -0.03159
204.80000 1.59224 -0.16332 -0.03011
204.90000 1.49599 0.03882 0.02302
205.00000 1.51675 0.11011 0.06231
205.10000 1.53767 -0.02189 -0.07048
205.20000 1.59145 0.09075 0.01484
205.30000 1.52663 0.01678 0.00351
205.40000 1.59079 0.07963 -0.11359
205.50000 1.60570 0.04170 0.00493
205.60000 1.46322 0.06889 -0.01087
205.70000 1.56566 0.06773 0.04986
205.80000 1.53130 -0.03500 -0.03997
205.90000 1.59559 -0.03341 0.01960
206.00000 1.52572 -0.00487 -0.01133
206.10000 1.52007 -0.09159 -0.00302
206.20000 1.58071 0.06309 0.02767
206.30000 1.55059 0.14774 -0.03200
206.40000 1.49318 0.04060 0.00969
206.50000 1.54701 -0.14252 0.08227
206.60000 1.59147 -0.11740 -0.03825
206.70000 1.52814 0.07554 -0.00689
206.80000 1.56838 0.22650 0.01081
206.90000 1.56565 0.26000 -0.05023
207.00000 1.55910 0.02152 0.06198
207.10000 1.58991 -0.00327 0.04556
207.20000 1.55811 -0.05494 -0.02375
207.30000 1.49754 -0.10612 -0.01222
207.40000 1.51110 -0.01196 0.07643
207.50000 1.53117 0.11285 0.01728
207.60000 1.53232 0.13041 -0.03364
207.70000 1.53473 0.09014 -0.01909
207.80000 1.58039 -0.06115 -0.00257
207.90000 1.55786 -0.08567 0.00970
208.00000 1.53532 -0.03408 -0.01289
208.10000 1.53722 0.10747 0.03015
208.20000 1.58556 0.28770 0.03321
208.30000 1.55378 0.23041 -0.06865
208.40000 1.50793 0.23623 0.03933
208.50000 1.56322 0.21481 -0.00385
208.60000 1.58822 -0.02802 -0.04441
208.70000 1.51799 -0.03700 0.02213
208.80000 1.58933 0.06558 -0.03376
208.90000 1.56194 0.22737 -0.02631
209.00000 1.56380 0.18851 0.01890
209.10000 1.52713 0.14853 0.02226
209.20000 1.57099 0.12949 -0.01184
209.30000 1.54439 0.07653 -0.00780
209.40000 1.54333 0.02593 0.05588
209.50000 1.58854 0.07483 0.03072
209.60000 1.51824 0.09685 -0.04745
209.70000 1.54275 0.10558 -0.04121
209.80000 1.54553 0.04951 0.02251
209.90000 1.56268 0.07389 0.04199
210.00000 1.53621 0.00144 0.01354
210.10000 1.57203 -0.09670 0.01556
210.20000 1.53688 -0.05010 -0.01071
210.30000 1.59464 0.06087 0.02706
210.40000 1.51972 0.25010 -0.00546
210.50000 1.53238 0.20337 -0.07872
210.60000 1.61034 0.11288 0.01209
210.70000 1.55034 -0.06816 0.05542
210.80000 1.51455 -0.03212 -0.08543
210.90000 1.54294 0.07867 -0.00774
211.00000 1.51222 0.15194 0.02348
211.10000 1.56031 0.07548 0.01611
211.20000 1.60932 -0.03314 -0.01835
211.30000 1.55315 -0.02713 0.01523
211.40000 1.49714 -0.01709 0.03157
211.50000 1.58000 -0.00406 0.02892
211.60000 1.55010 0.06283 -0.01979
211.70000 1.58282 0.11379 0.00960
211.80000 1.57502 -0.03901 -0.04977
211.90000 1.57427 -0.01380 0.03790
212.00000 1.51444 -0.13902 0.05349
212.10000 1.56047 -0.10225 -0.02855
212.20000 1.63097 0.11753 0.06237
212.30000 1.54253 0.21167 0.01067
212.40000 1.58783 0.16609 -0.04526
212.50000 1.56600 0.08214 -0.02192
212.60000 1.59205 -0.13278 0.03270
212.70000 1.44461 -0.02083 -0.07222
212.80000 1.55639 0.15603 0.04309
212.90000 1.58207 0.13766 -0.01071
213.00000 1.51483 -0.03761 -0.01432
213.10000 1.53073 -0.14180 0.01564
213.20000 1.56982 -0.06433 -0.04181
213.30000 1.50322 -0.03537 0.00304
213.40000 1.55341 0.05123 0.08310
213.50000 1.54608 0.11202 0.00548
213.60000 1.52693 0.09401 -0.02751
213.70000 1.55488 0.09564 0.02354
213.80000 1.60276 0.16010 -0.04155
213.90000 1.53736 0.19210 -0.03136
214.00000 1.58507 0.00716 0.01894
214.10000 1.55511 -0.08934 -0.00420
214.20000 1.52882 0.08776 0.02797
214.30000 1.57100 -0.04778 0.01530
214.40000 1.58396 -0.12626 0.00927
214.50000 1.56031 -0.08000 0.01064
214.60000 1.54889 -0.07785 -0.01338
214.70000 1.52498 0.00617 -0.04544
214.80000 1.53204 0.20539 -0.00554
214.90000 1.59211 0.24637 -0.00963
215.00000 1.53809 0.15971 0.00185
215.10000 1.52327 -0.00047 0.03226
215.20000 1.56292 -0.16814 -0.05195
215.30000 1.58445 -0.04202 -0.00201
215.40000 1.55808 0.07748 0.07581
215.50000 1.53447 0.31614 0.03317
215.60000 1.53842 0.08532 -0.07153
215.70000 1.57238 -0.05882 0.00685
215.80000 1.56434 -0.17540 0.01791
215.90000 1.53837 -0.07279 0.02409
216.00000 1.58848 -0.15900 0.01108
216.10000 1.58341 -0.07435 -0.08404
216.20000 1.51725 0.04500 0.06896
216.30000 1.56228 0.23501 0.03074
216.40000 1.57116 0.28924 0.00787
216.50000 1.46924 0.31762 -0.03871
216.60000 1.53353 0.05945 -0.00650
216.70000 1.59708 -0.06450 0.02311
216.80000 1.57955 -0.14849 0.04728
216.90000 1.55074 -0.23981 -0.04830
217.00000 1.52739 0.05477 0.01409
217.10000 1.54511 0.14323 0.03796
217.20000 1.52247 0.27815 0.02357
217.30000 1.57899 0.14794 0.03825
217.40000 1.61862 -0.03347 -0.04806
217.50000 1.53972 0.00039 -0.05390
217.60000 1.56197 0.08123 0.01848
217.70000 1.55133 0.30003 0.02346
217.80000 1.59028 0.18557 0.02127
217.90000 1.54920 -0.01245 -0.02781
218.00000 1.52394 0.00615 -0.03453
218.10000 1.55970 -0.05274 0.01712
218.20000 1.58773 -0.00023 0.00161
218.30000 1.55353 0.23438 0.00492
218.40000 1.53275 0.49345 0.00081
218.50000 1.49390 0.51298 0.00457
218.60000 1.60811 0.32453 -0.02835
218.70000 1.55793 0.16117 0.01350
218.80000 1.57689 0.12815 -0.01024
218.90000 1.56600 0.16719 0.01583
219.00000 1.54783 -0.00053 -0.01454
219.10000 1.54041 -0.13856 0.04633
219.20000 1.54605 0.03707 0.01074
219.30000 1.57790 0.23423 -0.03362
219.40000 1.57917 0.26285 -0.00551
219.50000 1.52403 -0.04460 -0.00959
219.60000 1.57831 0.05728 0.03723
219.70000 1.55833 0.10494 0.01193
219.80000 1.59543 -0.03120 -0.00162
219.90000 1.60323 0.02805 -0.00715
220.00000 1.53716 0.14634 0.06785
220.10000 1.52551 0.17818 -0.04559
220.20000 1.51036 -0.04242 -0.03492
220.30000 1.55100 -0.03773 -0.00135
220.40000 1.64513 -0.05296 0.03717
220.50000 1.55770 0.01081 0.10358
220.60000 1.51722 0.08125 -0.03972
220.70000 1.59218 0.02787 -0.04932
220.80000 1.54284 0.01309 0.03711
220.90000 1.55966 0.03117 -0.02263
221.00000 1.53194 -0.14935 -0.00937
221.10000 1.54217 -0.16193 -0.03223
221.20000 1.57131 -0.03017 0.03669
221.30000 1.59974 -0.00024 0.01998
221.40000 1.56768 -0.11214 -0.07623
221.50000 1.53340 -0.11691 -0.00457
221.60000 1.54471 -0.14883 0.02934
221.70000 1.50593 -0.07097 -0.04360
221.80000 1.58300 -0.00063 -0.00020
221.90000 1.63384 0.00081 0.02170
222.00000 1.56287 0.05920 0.02691
222.10000 1.55434 -0.10461 -0.04651
222.20000 1.51848 -0.22305 -0.00071
222.30000 1.55151 -0.18206 0.01347
222.40000 1.56017 -0.14606 0.03364
222.50000 1.55554 0.01595 -0.06155
222.60000 1.53580 -0.03802 -0.00976
222.70000 1.57971 0.13453 0.01846
222.80000 1.62275 0.15301 0.00820
222.90000 1.56831 -0.15932 -0.06768
223.00000 1.51547 -0.25793 0.02165
223.10000 1.53875 -0.11933 0.05275
223.20000 1.52616 0.12506 -0.02370
223.30000 1.51929 0.18957 -0.04007
223.40000 1.51543 0.11409 -0.01059
223.50000 1.53498 0.15957 -0.00127
223.60000 1.54335 0.13552 0.07729
223.70000 1.57993 0.12033 -0.04444
223.80000 1.54592 -0.09335 -0.04848
223.90000 1.53583 -0.20585 0.02007
224.00000 1.53997 -0.06227 -0.04037
224.10000 1.56241 -0.01362 0.01352
224.20000 1.53619 0.05654 -0.05933
224.30000 1.53889 0.45982 0.03962
224.40000 1.55631 0.47235 0.06228
224.50000 1.51468 0.11417 0.00393
224.60000 1.54399 -0.39365 0.00890
224.70000 1.58155 -0.37594 0.02183
224.80000 1.53151 -0.00506 0.02636
224.90000 1.55855 0.11964 0.00812
225.00000 1.53791 0.06934 -0.02268
225.10000 1.51854 -0.12035 0.04805
225.20000 1.61584 0.06703 -0.06434
225.30000 1.54747 0.20663 0.02606
225.40000 1.51075 0.04608 0.07535
225.50000 1.51310 -0.12441 0.00396
225.60000 1.57431 -0.06801 0.00908
225.70000 1.56961 -0.08397 -0.01356
225.80000 1.62206 -0.01370 0.02520
225.90000 1.55747 0.11504 0.03142
226.00000 1.53455 0.07663 -0.01818
226.10000 1.50668 0.11955 -0.01983
226.20000 1.58202 0.06694 -0.03696
226.30000 1.58775 0.03561 0.02793
226.40000 1.53947 -0.04838 0.05431
226.50000 1.49288 -0.10374 -0.00818
226.60000 1.57956 0.00541 0.01120
226.70000 1.55685 0.14423 0.03514
226.80000 1.57943 0.10375 -0.04441
226.90000 1.56428 0.03920 -0.08896
227.00000 1.58855 0.05373 0.02009
227.10000 1.56558 0.08354 0.06493
227.20000 1.49588 -0.01748 -0.01472
227.30000 1.48311 0.03591 -0.03658
227.40000 1.54827 0.21176 0.00544
227.50000 1.57965 0.29658 -0.01732
227.60000 1.53696 0.28886 0.04345
227.70000 1.53134 -0.00195 -0.03433
227.80000 1.59398 -0.13677 0.03489
227.90000 1.56177 -0.11233 0.02735
228.00000 1.46963 0.14951 -0.03360
228.10000 1.54809 0.30819 0.00866
228.20000 1.60080 0.31045 -0.05099
228.30000 1.59456 0.28316 0.00529
228.40000 1.51383 0.02191 -0.01705
228.50000 1.54433 -0.23650 -0.01508
228.60000 1.57244 -0.21858 -0.00895
228.70000 1.58681 0.08851 0.07892
228.80000 1.58369 0.27614 0.00096
228.90000 1.52656 0.23449 -0.04364
229.00000 1.56039 -0.01489 -0.00763
229.10000 1.59689 -0.29331 -0.00153
229.20000 1.46901 -0.30579 -0.06797
229.30000 1.52501 0.02697 0.01057
229.40000 1.60632 0.16980 0.00065
229.50000 1.56941 -0.04082 -0.01505
229.60000 1.55985 -0.10492 0.03264
229.70000 1.52955 0.01953 0.02895
229.80000 1.53802 0.12158 -0.04396
229.90000 1.58130 0.01448 -0.04939
230.00000 1.52788 -0.06314 0.03868
230.10000 1.56879 -0.19331 0.05823
230.20000 1.54963 -0.20409 -0.02104
230.30000 1.55170 0.01471 0.00940
230.40000 1.52191 0.15283 0.02582
230.50000 1.57159 0.21389 0.00724
230.60000 1.59032 0.20475 -0.03344
230.70000 1.53262 0.16470 0.02708
230.80000 1.58581 -0.07653 -0.03463
230.90000 1.50379 -0.15354 0.01678
231.00000 1.57307 0.06544 -0.01249
231.10000 1.59009 0.06028 0.00205
231.20000 1.55739 -0.02219 -0.00879
231.30000 1.50696 0.13289 0.02985
231.40000 1.55184 0.25322 -0.03492
231.50000 1.59617 0.24691 0.00249
231.60000 1.50556 0.24274 0.02164
231.70000 1.57876 0.02125 -0.02140
231.80000 1.56985 0.05107 -0.02559
231.90000 1.56929 0.11089 -0.03443
232.00000 1.53732 0.07074 0.05832
232.10000 1.60218 0.00736 0.00171
232.20000 1.52496 0.00094 -0.07178
232.30000 1.58559 -0.07027 0.03208
232.40000 1.59203 -0.06177 0.01652
232.50000 1.53026 -0.02917 -0.04129
232.60000 1.58543 0.01322 -0.01129
232.70000 1.55779 0.00398 0.07590
232.80000 1.53333 -0.05163 -0.01553
232.90000 1.55350 -0.22297 -0.05191
233.00000 1.50977 -0.02092 0.04631
233.10000 1.58368 0.16929 0.03286
233.20000 1.61880 0.26814 0.01875
233.30000 1.56865 0.18908 -0.01579
233.40000 1.54201 -0.05994 0.02205
233.50000 1.54698 -0.11252 0.00293
233.60000 1.58200 0.06889 -0.06574
233.70000 1.51148 0.11242 0.00019
233.80000 1.54777 -0.05346 0.02222
233.90000 1.59053 -0.14148 -0.03520
234.00000 1.52285 -0.07997 0.01106
234.10000 1.53555 -0.12147 0.03806
234.20000 1.50458 0.10304 -0.03843
234.30000 1.59229 0.34011 0.04426
234.40000 1.57135 0.15772 -0.02034
234.50000 1.58581 0.08759 0.00716
234.60000 1.48932 0.00451 -0.02258
234.70000 1.59393 -0.06442 -0.04368
234.80000 1.58980 0.03599 0.07571
234.90000 1.47592 0.18489 0.00423
235.00000 1.55788 0.18246 0.00335
235.10000 1.60357 0.20868 0.05106
235.20000 1.52571 0.14524 -0.00013
235.30000 1.55653 0.09174 -0.03038
235.40000 1.53442 0.03139 0.01132
235.50000 1.51472 0.05065 0.04374
235.60000 1.51119 0.05459 0.01395
235.70000 1.62774 0.10161 -0.05440
235.80000 1.60651 0.15512 0.04763
235.90000 1.52318 0.02183 -0.00029
236.00000 1.56323 -0.13835 -0.01524
236.10000 1.57036 -0.01678 -0.01196
236.20000 1.51595 0.05732 -0.02066
236.30000 1.54891 0.14310 0.01492
236.40000 1.52041 0.10838 0.09809
236.50000 1.60722 0.02017 -0.00582
236.60000 1.53553 -0.03494 -0.03881
236.70000 1.55418 -0.08349 -0.01000
236.80000 1.56651 0.02098 -0.00727
236.90000 1.57103 -0.02858 -0.03769
237.00000 1.61173 -0.06413 0.03126
237.10000 1.50608 -0.02647 0.00064
237.20000 1.53197 -0.15274 -0.00615
237.30000 1.58123 -0.14931 -0.01024
237.40000 1.59377 0.00562 0.00504
237.50000 1.52433 0.02120 0.01702
237.60000 1.49794 0.16252 -0.02963
237.70000 1.50880 0.12045 -0.02989
237.80000 1.63889 0.00602 -0.01606
237.90000 1.61334 -0.16034 -0.00104
238.00000 1.51352 -0.17512 0.00396
238.10000 1.52970 -0.09650 -0.03971
238.20000 1.56227 0.20449 0.07026
238.30000 1.54380 0.25546 -0.04529
238.40000 1.53375 0.12069 -0.04012
238.50000 1.49561 -0.07969 0.03620
238.60000 1.52699 0.02467 -0.05097
238.70000 1.64939 0.14612 -0.03365
238.80000 1.56162 -0.06351 0.03676
238.90000 1.53335 -0.24404 -0.04636
239.00000 1.48226 -0.25920 0.03911
239.10000 1.56325 -0.33647 -0.01812
239.20000 1.62778 -0.23509 0.01932
239.30000 1.53584 -0.11747 0.00190
239.40000 1.44859 0.16581 -0.03873
239.50000 1.53768 0.36240 -0.00188
239.60000 1.59707 0.53860 0.03940
239.70000 1.50771 0.55124 -0.02983
239.80000 1.54950 0.25711 0.02726
239.90000 1.62719 0.00077 -0.01240
240.00000 1.57648 -0.08046 -0.05462
240.10000 1.55438 -0.11625 -0.01539
240.20000 1.54881 -0.17943 -0.00566
240.30000 1.57001 -0.07224 0.04020
240.40000 1.53571 0.00322 -0.04268
240.50000 1.55923 -0.10588 0.03790
240.60000 1.55756 0.00392 -0.01531
240.70000 1.55347 0.05855 -0.03275
240.80000 1.54907 -0.02298 0.06176
240.90000 1.54691 -0.13773 -0.00353
241.00000 1.52848 0.05890 -0.06678
241.10000 1.56457 -0.01459 0.02152
241.20000 1.58016 -0.13926 0.04702
241.30000 1.53984 -0.20076 -0.01983
241.40000 1.54264 -0.15386 -0.04143
241.50000 1.60044 -0.04859 0.01188
241.60000 1.59643 -0.08937 0.03744
241.70000 1.54961 -0.04765 -0.05988
241.80000 1.51429 -0.08222 0.02006
241.90000 1.58460 -0.09338 -0.01417
242.00000 1.53518 -0.07734 -0.01043
242.10000 1.55960 -0.08784 0.00937
242.20000 1.52577 -0.09061 0.00341
242.30000 1.56799 -0.20215 -0.04761
242.40000 1.55401 -0.37845 -0.01389
242.50000 1.55233 -0.12959 0.01792
242.60000 1.54668 0.02549 0.00784
242.70000 1.53505 0.04456 0.01824
242.80000 1.58841 -0.00528 0.02938
242.90000 1.56835 -0.17904 -0.07411
243.00000 1.59011 -0.20852 0.08071
243.10000 1.54941 -0.12570 0.01905
243.20000 1.57517 0.08943 -0.04339
243.30000 1.59310 0.30636 0.01353
243.40000 1.57826 0.34110 0.08047
243.50000 1.56149 0.08359 0.01963
243.60000 1.55207 -0.07396 -0.07413
243.70000 1.51094 -0.16149 0.05684
243.80000 1.57855 0.02618 0.00406
243.90000 1.56228 0.12801 -0.01862
244.00000 1.58113 0.19325 0.01369
244.10000 1.56389 0.12320 0.00944
244.20000 1.55470 0.08060 0.02524
244.30000 1.58346 -0.00539 -0.03257
244.40000 1.52411 0.00360 0.00672
244.50000 1.54341 0.07856 -0.06292
244.60000 1.55179 0.04893 0.01691
244.70000 1.60472 0.20197 -0.00025
244.80000 1.56754 0.43383 -0.02284
244.90000 1.50944 0.37533 0.03668
245.00000 1.54445 0.24500 -0.02172
245.10000 1.54806 -0.02768 -0.01337
245.20000 1.57089 -0.28773 -0.05517
245.30000 1.55045 -0.25028 -0.02847
245.40000 1.58423 -0.09240 -0.03396
245.50000 1.50970 -0.09387 -0.02997
245.60000 1.56032 0.10354 0.01971
245.70000 1.58066 0.20166 -0.01256
245.80000 1.56874 0.09088 0.00070
245.90000 1.52853 0.09245 0.02353
246.00000 1.49933 0.28795 -0.06375
246.10000 1.55607 0.48633 -0.02170
246.20000 1.58183 0.43765 0.05139
246.30000 1.56206 0.15816 0.07246
246.40000 1.55484 -0.19573 -0.02890
246.50000 1.51014 -0.07772 -0.03861
246.60000 1.54939 0.12446 0.00548
246.70000 1.54845 0.22257 0.02282
246.80000 1.55279 -0.06696 -0.08207
246.90000 1.54519 -0.26335 -0.00953
247.00000 1.64628 -0.07027 0.06462
247.10000 1.51986 0.38325 -0.05504
247.20000 1.57464 0.30831 0.05065
247.30000 1.59766 0.12140 0.05222
247.40000 1.56091 0.02435 -0.01246
247.50000 1.49621 -0.06239 -0.06494
247.60000 1.55306 -0.12589 0.06002
247.70000 1.60054 -0.05478 0.00415
247.80000 1.56048 0.02337 -0.03058
247.90000 1.56223 0.15390 -0.01571
248.00000 1.56391 0.07065 -0.00261
248.10000 1.55302 -0.10985 0.03759
248.20000 1.53525 -0.13256 0.01080
248.30000 1.55621 0.11156 0.04186
248.40000 1.51939 0.03301 -0.00456
248.50000 1.59518 0.09694 -0.00866
248.60000 1.49857 0.13237 -0.01163
248.70000 1.58024 0.00217 -0.01938
248.80000 1.62547 -0.12722 0.00307
248.90000 1.53276 -0.04573 -0.01039
249.00000 1.56133 0.01271 0.05154
249.10000 1.53407 -0.00010 0.00733
249.20000 1.50142 -0.02291 -0.02639
249.30000 1.57725 0.03356 0.06610
249.40000 1.55662 0.04941 0.04163
249.50000 1.54021 -0.05875 -0.04311
249.60000 1.55811 -0.17686 -0.03116
249.70000 1.56964 -0.23959 0.04749
249.80000 1.60074 -0.07163 0.04739
249.90000 1.52308 0.08993 -0.01230
250.00000 1.58444 0.15312 0.01018
250.10000 1.57546 0.00296 -0.05275
250.20000 1.56300 -0.25770 0.04179
250.30000 1.56304 -0.24631 -0.00094
250.40000 1.59522 -0.05734 -0.03870
250.50000 1.58919 0.17624 -0.00448
250.60000 1.56952 0.26989 0.00949
250.70000 1.55715 0.30445 0.05265
250.80000 1.58200 -0.10168 -0.01020
250.90000 1.57672 -0.40602 -0.02975
251.00000 1.51662 -0.34678 -0.03067
251.10000 1.54459 -0.17374 0.04085
251.20000 1.56518 0.17943 0.06620
251.30000 1.55783 0.17018 -0.03855
251.40000 1.49827 0.13416 -0.05384
251.50000 1.53970 0.19905 0.09821
251.60000 1.59758 0.07469 0.00297
251.70000 1.56446 -0.02341 -0.01410
251.80000 1.50287 -0.11856 -0.02959
251.90000 1.52921 -0.08901 0.00778
252.00000 1.58859 0.02560 -0.00066
252.10000 1.52424 -0.05945 0.00184
252.20000 1.50604 -0.02939 0.02270
252.30000 1.59460 -0.10939 -0.01093
252.40000 1.56570 -0.09416 0.03332
252.50000 1.54341 -0.02871 -0.05322
252.60000 1.57958 -0.00597 -0.03331
252.70000 1.49660 0.03925 0.05047
252.80000 1.53593 -0.03014 0.02576
252.90000 1.62855 -0.05247 -0.03668
253.00000 1.57760 0.01725 -0.01266
253.10000 1.55468 0.03206 -0.01387
253.20000 1.55844 -0.07423 0.00371
253.30000 1.53629 -0.16107 0.01924
253.40000 1.59350 -0.05440 0.03589
253.50000 1.56466 0.11515 0.02071
253.60000 1.54420 0.14350 -0.05518
253.70000 1.57442 0.05450 -0.07285
253.80000 1.54916 0.05861 0.01482
253.90000 1.52297 0.16589 0.05043
254.00000 1.54599 0.14276 0.02318
254.10000 1.62436 0.30129 -0.04111
254.20000 1.56416 0.45177 0.00218
254.30000 1.51732 0.34592 0.05161
254.40000 1.55781 0.04908 0.01890
254.50000 1.56221 -0.10970 -0.00055
254.60000 1.57857 -0.15862 -0.01147
254.70000 1.53612 -0.34953 -0.03844
254.80000 1.54044 -0.14989 -0.04939
254.90000 1.60177 -0.18286 -0.00166
255.00000 1.57637 -0.10205 0.02760
255.10000 1.56596 -0.01800 0.02222
255.20000 1.62736 -0.06696 -0.02743
255.30000 1.58688 -0.13521 -0.00836
255.40000 1.54191 -0.03182 -0.04644
255.50000 1.50910 -0.06385 0.08057
255.60000 1.56011 -0.04372 0.08116
255.70000 1.56510 0.10234 -0.07780
255.80000 1.59055 0.38617 -0.08714
255.90000 1.59117 0.37315 0.06775
256.00000 1.51649 -0.05811 -0.00736
256.10000 1.54894 -0.31956 -0.05078
256.20000 1.56148 0.05116 0.02833
256.30000 1.55757 0.05662 -0.02082
256.40000 1.52769 -0.22973 -0.03787
256.50000 1.52602 -0.24419 0.00940
256.60000 1.57105 -0.15811 -0.03366
256.70000 1.61653 -0.09642 0.00866
256.80000 1.60955 -0.10724 0.00843
256.90000 1.53668 -0.08233 -0.04144
257.00000 1.54159 -0.01410 -0.05370
257.10000 1.54383 -0.01796 0.05823
257.20000 1.50960 -0.13421 -0.00676
257.30000 1.57087 -0.14645 -0.04659
257.40000 1.53739 -0.09772 0.05766
257.50000 1.56857 -0.05384 0.07032
257.60000 1.58586 -0.02277 -0.03272
257.70000 1.49550 0.02971 -0.05539
257.80000 1.53332 -0.04538 -0.01053
257.90000 1.56801 0.03959 0.01328
258.00000 1.58665 0.13127 0.03582
258.10000 1.56550 0.10192 0.02940
258.20000 1.50709 0.16176 -0.01954
258.30000 1.60236 -0.02369 0.02072
258.40000 1.60454 -0.14542 -0.01739
258.50000 1.56401 -0.09814 -0.00775
258.60000 1.54592 -0.07970 0.03870
258.70000 1.55027 -0.05329 -0.02595
258.80000 1.57312 0.08084 0.03636
258.90000 1.61105 0.17933 -0.00025
259.00000 1.54377 0.18304 -0.03845
259.10000 1.57658 0.11451 0.00847
259.20000 1.52673 0.12146 0.03094
259.30000 1.55871 0.11366 -0.00669
259.40000 1.53949 0.03970 -0.00086
259.50000 1.52256 0.02318 -0.00495
259.60000 1.55930 0.01147 -0.02387
259.70000 1.58465 0.12493 0.02267
259.80000 1.56919 0.13113 -0.02274
259.90000 1.57566 -0.04958 -0.00739
260.00000 1.55156 -0.16871 0.11709
260.10000 1.53696 -0.19189 -0.04470
260.20000 1.56405 -0.03651 -0.02950
260.30000 1.59164 0.19309 0.04933
260.40000 1.51424 0.16116 0.03843
260.50000 1.55809 0.09034 -0.00873
260.60000 1.53323 -0.16720 -0.04570
260.70000 1.57632 -0.25932 0.01028
260.80000 1.57450 -0.16647 0.02064
260.90000 1.61159 -0.06761 -0.01142
261.00000 1.60426 -0.06931 0.01735
261.10000 1.56882 -0.08898 0.02638
261.20000 1.54012 -0.09679 0.01258
261.30000 1.53310 0.02330 0.00040
261.40000 1.61906 0.13395 -0.01992
261.50000 1.58292 0.01378 0.03506
261.60000 1.51149 -0.10938 -0.01454
261.70000 1.51562 -0.02221 -0.00141
261.80000 1.55741 -0.11030 -0.03366
261.90000 1.53523 -0.17514 0.06914
262.00000 1.55273 -0.24826 0.02089
262.10000 1.53878 -0.33982 -0.04999
262.20000 1.53744 -0.26691 0.02125
262.30000 1.61760 -0.09057 -0.01514
262.40000 1.53479 0.11617 0.05633
262.50000 1.57311 0.22130 0.00856
262.60000 1.55622 0.25930 -0.02541
262.70000 1.53285 0.14543 0.03404
262.80000 1.57392 -0.05420 0.03061
262.90000 1.55869 -0.08493 -0.07611
263.00000 1.53450 -0.07234 0.02257
263.10000 1.59373 -0.22069 0.03330
263.20000 1.57032 -0.12545 -0.03090
263.30000 1.50989 0.03682 -0.03500
263.40000 1.55971 0.09556 0.00870
263.50000 1.60621 0.07004 0.00648
263.60000 1.58162 0.04410 0.02917
263.70000 1.52111 -0.02356 -0.01003
263.80000 1.53930 0.02126 -0.00411
263.90000 1.59557 0.09457 -0.00403
264.00000 1.59128 0.05345 -0.02387
264.10000 1.55913 -0.00855 0.01732
264.20000 1.57915 0.09667 -0.00807
264.30000 1.55201 0.07310 0.01620
264.40000 1.51031 0.13300 0.02293
264.50000 1.58428 -0.01994 -0.00526
264.60000 1.55397 -0.10186 -0.03159
264.70000 1.52245 0.03170 0.06114
264.80000 1.56669 -0.05098 -0.01373
264.90000 1.57313 -0.28658 -0.00686
265.00000 1.54610 0.00185 -0.01980
265.10000 1.54224 0.23773 0.01541
265.20000 1.54780 0.13307 0.07062
265.30000 1.58558 -0.10268 -0.04714
265.40000 1.59068 -0.09155 -0.02894
265.50000 1.57496 -0.17643 0.06077
265.60000 1.50928 0.01021 -0.09771
265.70000 1.51839 0.03999 -0.02043
265.80000 1.56298 -0.04638 -0.03110
265.90000 1.52677 -0.06924 0.03817
266.00000 1.51104 0.02420 0.01052
266.10000 1.60762 0.14915 -0.02612
266.20000 1.54984 0.07171 -0.05354
266.30000 1.52931 -0.09058 0.01408
266.40000 1.57879 -0.08696 0.00008
266.50000 1.52243 -0.01047 -0.03035
266.60000 1.55009 -0.01916 -0.01421
266.70000 1.58279 -0.03895 0.14070
266.80000 1.59426 0.07293 -0.04715
266.90000 1.47329 0.14094 -0.04379
267.00000 1.56811 0.12268 0.03372
267.10000 1.61248 0.09792 0.00519
267.20000 1.50912 -0.07150 0.03043
267.30000 1.57575 -0.15010 -0.07964
267.40000 1.56254 -0.02697 0.02923
267.50000 1.60028 0.13133 0.06544
267.60000 1.58817 0.17322 -0.00084
267.70000 1.53486 0.21458 -0.02925
267.80000 1.52996 0.14037 -0.00781
267.90000 1.57804 -0.02884 -0.05206
268.00000 1.53967 0.14413 0.03845
268.10000 1.56190 0.17650 0.06786
268.20000 1.54663 -0.03858 -0.05410
268.30000 1.51680 0.06543 -0.04696
268.40000 1.57798 0.03096 0.09679
268.50000 1.58905 -0.15767 -0.09326
268.60000 1.54779 -0.21627 -0.02700
268.70000 1.52641 -0.25582 0.02001
268.80000 1.57777 -0.19988 0.00572
268.90000 1.55753 -0.00907 -0.01024
269.00000 1.52969 -0.02197 -0.05151
269.10000 1.54415 0.01563 0.00996
269.20000 1.51277 0.03780 -0.01967
269.30000 1.54083 -0.22963 -0.00382
269.40000 1.61187 -0.21733 0.02477
269.50000 1.55445 -0.18577 0.00022
269.60000 1.54334 0.05086 0.00418
269.70000 1.55774 0.02002 -0.01251
269.80000 1.57070 -0.09141 -0.02119
269.90000 1.57294 -0.22556 0.06611
270.00000 1.49833 -0.09804 -0.03422
270.10000 1.56825 -0.00717 0.03435
270.20000 1.54585 -0.00690 -0.12144
270.30000 1.55969 0.03022 0.02488
270.40000 1.57029 0.10928 0.02000
270.50000 1.58324 0.05313 -0.03622
270.60000 1.53822 0.02746 0.00441
270.70000 1.49976 0.10568 -0.02494
270.80000 1.56741 0.06246 0.02124
270.90000 1.55117 0.07498 -0.01006
271.00000 1.58270 0.15702 -0.01786
271.10000 1.58799 -0.06905 0.01303
271.20000 1.54003 -0.13691 0.04172
271.30000 1.56054 -0.01912 -0.03422
271.40000 1.58024 -0.09299 -0.00773
271.50000 1.56577 -0.15505 0.04783
271.60000 1.51779 -0.25453 -0.02842
271.70000 1.53340 -0.10040 -0.03603
271.80000 1.65204 0.08587 0.06766
271.90000 1.54937 0.31998 0.00690
272.00000 1.47063 0.21342 -0.01648
272.10000 1.54911 0.13946 0.02339
272.20000 1.63492 0.12884 -0.03274
272.30000 1.58588 -0.12564 0.04053
272.40000 1.52841 -0.17584 -0.01239
272.50000 1.56740 0.05289 0.00010
272.60000 1.54934 0.19580 0.05734
272.70000 1.51665 0.21062 0.07705
272.80000 1.60345 0.10956 -0.01249
272.90000 1.59721 -0.05462 0.00936
273.00000 1.49348 0.02686 0.01933
273.10000 1.55268 -0.02695 -0.01045
273.20000 1.54762 -0.05769 0.00747
273.30000 1.51877 -0.08779 -0.01932
273.40000 1.55985 -0.20462 0.03155
273.50000 1.60887 -0.08815 -0.01590
273.60000 1.48984 -0.02410 0.03013
273.70000 1.51345 -0.22073 -0.01376
273.80000 1.56303 -0.14155 -0.01534
273.90000 1.62542 -0.08410 -0.03443
274.00000 1.60129 -0.11035 0.00658
274.10000 1.55836 0.10581 -0.00683
274.20000 1.48842 0.17052 -0.01642
274.30000 1.55561 0.08051 -0.00360
274.40000 1.55597 -0.13279 0.00684
274.50000 1.60130 -0.27849 0.00327
274.60000 1.51119 -0.35474 -0.03381
274.70000 1.51994 -0.18910 0.01340
274.80000 1.52832 0.06425 -0.03318
274.90000 1.58235 0.07693 0.03186
275.00000 1.56899 0.14916 -0.03543
275.10000 1.54219 0.12397 -0.04856
275.20000 1.55402 -0.04004 0.01816
275.30000 1.56507 -0.08047 0.02639
275.40000 1.54868 -0.12349 0.01503
275.50000 1.54881 -0.13237 -0.01443
275.60000 1.50845 -0.06691 0.01340
275.70000 1.55006 0.17582 0.02479
275.80000 1.54189 -0.03341 -0.00906
275.90000 1.53928 -0.38591 -0.01779
276.00000 1.49822 -0.37574 0.02991
276.10000 1.50703 -0.02539 -0.02861
276.20000 1.53635 0.11408 -0.00512
276.30000 1.61703 -0.06634 -0.01409
276.40000 1.63845 -0.07420 -0.01898
276.50000 1.55401 -0.09049 -0.02205
276.60000 1.54503 -0.12948 0.02130
276.70000 1.51407 -0.19605 -0.02570
276.80000 1.56757 -0.12719 -0.01014
276.90000 1.61119 -0.10662 0.03922
277.00000 1.53005 -0.01062 0.02820
277.10000 1.66029 0.20262 -0.01480
277.20000 1.52847 0.13514 0.01734
277.30000 1.47036 0.01570 -0.00847
277.40000 1.55893 -0.08689 -0.03497
277.50000 1.58574 0.01563 0.00523
277.60000 1.56152 0.02507 -0.05119
277.70000 1.48631 0.09984 -0.01279
277.80000 1.58652 0.15945 0.01136
277.90000 1.57001 -0.03936 0.06582
278.00000 1.54863 -0.04026 0.00831
278.10000 1.56491 -0.04326 -0.00426
278.20000 1.57883 0.13017 -0.01401
278.30000 1.54933 -0.01748 -0.05322
278.40000 1.56336 -0.13323 0.01767
278.50000 1.54469 -0.15693 -0.00501
278.60000 1.56723 -0.07572 -0.00194
278.70000 1.54684 -0.06185 -0.00930
278.80000 1.54087 -0.09454 0.04842
278.90000 1.50989 -0.33057 -0.06473
279.00000 1.56058 -0.44180 -0.01417
279.10000 1.61903 -0.19027 0.01530
279.20000 1.56183 0.19565 -0.01212
279.30000 1.49290 0.33060 -0.00024
279.40000 1.50491 0.24422 -0.03229
279.50000 1.57165 0.15567 -0.03552
279.60000 1.65721 0.00366 0.02120
279.70000 1.50311 -0.24291 0.01811
279.80000 1.53549 -0.23384 0.00566
279.90000 1.54738 0.08047 0.01690
280.00000 1.61016 0.15606 -0.05039
280.10000 1.46330 0.13011 0.02086
280.20000 1.52010 0.02864 0.05409
280.30000 1.56821 -0.07084 -0.04005
280.40000 1.58746 -0.08973 -0.01679
280.50000 1.57662 -0.02096 0.00167
280.60000 1.49123 0.21889 0.00463
280.70000 1.54205 0.29175 -0.03897
280.80000 1.58073 0.24941 -0.07204
280.90000 1.53228 0.19178 0.08761
281.00000 1.49005 0.20225 -0.00904
281.10000 1.60135 0.07840 -0.02652
281.20000 1.57307 -0.10168 0.02763
281.30000 1.52636 -0.28688 -0.00896
281.40000 1.53255 -0.12298 0.00062
281.50000 1.59308 -0.06592 0.02118
281.60000 1.55240 -0.06721 -0.03718
281.70000 1.55475 -0.05555 0.00067
281.80000 1.56242 -0.06574 0.08438
281.90000 1.49321 -0.12948 -0.03060
282.00000 1.56637 -0.06911 0.00087
282.10000 1.58534 -0.01697 0.02373
282.20000 1.51028 0.15000 -0.02419
282.30000 1.55036 0.07032 -0.04993
282.40000 1.55645 -0.01353 -0.03955
282.50000 1.51698 -0.06983 0.02461
282.60000 1.59502 -0.18648 0.02274
282.70000 1.54772 -0.05671 -0.00107
282.80000 1.49941 0.13831 0.07278
282.90000 1.59591 0.01755 -0.02111
283.00000 1.54925 -0.15979 -0.05132
283.10000 1.54108 -0.24350 -0.01064
283.20000 1.57751 -0.13372 0.02343
283.30000 1.52839 -0.11275 -0.01891
283.40000 1.58487 -0.03600 -0.03740
283.50000 1.53899 0.01005 0.06318
283.60000 1.46879 0.07472 -0.00736
283.70000 1.58710 0.19568 0.00874
283.80000 1.61467 0.17577 -0.01775
283.90000 1.51385 0.14885 0.03267
284.00000 1.53451 0.28736 -0.01941
284.10000 1.57168 0.10643 0.01672
284.20000 1.54059 0.05695 -0.02454
284.30000 1.52835 0.14368 0.03513
284.40000 1.56454 0.14183 0.03152
284.50000 1.51787 0.03362 -0.02903
284.60000 1.58141 0.10870 -0.05655
284.70000 1.55157 0.26988 -0.00013
284.80000 1.51629 0.21993 -0.05414
284.90000 1.56552 0.01147 0.05954
285.00000 1.56899 -0.15340 -0.02656
285.10000 1.51241 -0.22251 -0.05567
285.20000 1.51879 -0.19180 0.05932
285.30000 1.60284 -0.03624 0.00142
285.40000 1.51991 0.14671 -0.01546
285.50000 1.51023 0.05275 -0.02874
285.60000 1.59586 -0.24971 -0.04121
285.70000 1.56237 -0.38704 0.02798
285.80000 1.52213 -0.17285 0.02030
285.90000 1.52879 -0.16014 0.00629
286.00000 1.57176 -0.13829 -0.03235
286.10000 1.54375 -0.02695 0.03386
286.20000 1.54169 0.04110 0.03224
286.30000 1.60914 -0.04217 -0.03468
286.40000 1.56845 0.08053 -0.04999
286.50000 1.54860 0.08280 0.01566
286.60000 1.59253 0.05148 -0.02461
286.70000 1.61761 -0.04687 -0.04324
286.80000 1.57761 -0.17175 0.02843
286.90000 1.51973 -0.02758 0.04872
287.00000 1.54051 0.08770 -0.09585
287.10000 1.54326 -0.01629 0.01297
287.20000 1.59457 0.00364 -0.03636
287.30000 1.57613 0.16605 -0.02068
287.40000 1.55198 0.29121 0.06141
287.50000 1.56427 0.25250 -0.00942
287.60000 1.57294 0.13759 0.02154
287.70000 1.55344 0.07407 0.00952
287.80000 1.64395 0.16585 -0.07218
287.90000 1.55603 -0.00557 0.03441
288.00000 1.53999 -0.02871 0.02344
288.10000 1.54757 -0.10690 -0.09899
288.20000 1.58054 -0.12984 -0.01302
288.30000 1.59667 -0.12288 0.03680
288.40000 1.51358 -0.14531 -0.04160
288.50000 1.59065 -0.15221 -0.05145
288.60000 1.61560 -0.10170 0.04450
288.70000 1.56880 -0.11590 -0.00195
288.80000 1.52210 -0.11053 0.02054
288.90000 1.57028 0.10242 -0.00257
289.00000 1.55234 -0.00316 0.05688
289.10000 1.55183 0.10298 -0.00887
289.20000 1.53832 0.18739 -0.02753
289.30000 1.54147 0.00912 0.03429
289.40000 1.56741 -0.47717 0.02660
289.50000 1.59431 -0.56794 -0.09565
289.60000 1.54059 -0.37822 0.02436
289.70000 1.58734 -0.14621 0.05516
289.80000 1.56151 0.13158 0.02572
289.90000 1.55875 0.05386 0.03794
290.00000 1.49576 0.04243 0.01579
290.10000 1.57799 -0.01572 -0.06782
290.20000 1.59048 0.04183 -0.00288
290.30000 1.56747 0.07389 0.05095
290.40000 1.51875 -0.03501 -0.01227
290.50000 1.57638 -0.25222 -0.03509
290.60000 1.54380 -0.31163 0.00166
290.70000 1.55652 -0.40239 0.00508
290.80000 1.51411 -0.10455 -0.03308
290.90000 1.54587 0.23203 0.00429
291.00000 1.50258 0.02724 -0.00237
291.10000 1.51489 0.03220 0.01929
291.20000 1.58983 0.08374 0.04437
291.30000 1.53338 0.09783 0.00411
291.40000 1.52694 0.08793 -0.05638
291.50000 1.55525 0.08601 -0.04059
291.60000 1.51275 0.01686 0.00525
291.70000 1.58016 -0.08673 0.00510
291.80000 1.60454 -0.32443 -0.02639
291.90000 1.55611 -0.04898 -0.03565
292.00000 1.54111 0.29898 -0.00307
292.10000 1.49404 0.41144 0.04568
292.20000 1.58154 0.25670 0.02102
292.30000 1.61022 -0.10059 0.05504
292.40000 1.55724 -0.35384 -0.04671
292.50000 1.50085 -0.38951 -0.03058
292.60000 1.60075 -0.25245 -0.00839
292.70000 1.56117 -0.15104 0.00355
292.80000 1.53876 -0.06770 0.01351
292.90000 1.59123 0.00236 -0.04412
293.00000 1.53682 -0.01324 0.05454
293.10000 1.48021 0.03995 0.00059
293.20000 1.56851 0.09915 -0.01721
293.30000 1.60322 0.00713 -0.02258
293.40000 1.49896 -0.13348 0.02211
293.50000 1.46007 -0.22769 0.04641
293.60000 1.56582 -0.13994 0.03501
293.70000 1.63130 -0.07110 -0.01683
293.80000 1.50655 -0.01284 0.00141
293.90000 1.49008 -0.17190 0.05438
294.00000 1.55871 -0.34135 0.00915
294.10000 1.57154 -0.35547 -0.07980
294.20000 1.57572 -0.25137 0.04469
294.30000 1.51704 -0.23816 0.02309
294.40000 1.55296 -0.18497 -0.00327
294.50000 1.57039 -0.19674 0.04037
294.60000 1.59056 -0.22382 -0.03061
294.70000 1.56348 -0.11776 -0.00743
294.80000 1.50852 -0.16937 -0.01061
294.90000 1.57157 -0.31157 -0.00364
295.00000 1.57411 -0.00746 0.05050
295.10000 1.50559 0.24147 -0.04640
295.20000 1.52058 0.07454 0.02809
295.30000 1.61377 0.00333 0.00658
295.40000 1.57754 0.05888 0.04979
295.50000 1.50350 -0.07613 -0.06995
295.60000 1.50205 -0.12525 0.01369
295.70000 1.61235 -0.07252 0.05454
295.80000 1.56998 0.00012 0.03563
295.90000 1.56722 0.16935 -0.06097
296.00000 1.50763 0.27869 0.02725
296.10000 1.56033 0.39871 0.01184
296.20000 1.59021 0.16492 -0.00416
296.30000 1.51739 -0.12008 0.00566
296.40000 1.60674 -0.17466 0.01461
296.50000 1.59174 -0.20817 -0.01106
296.60000 1.51158 -0.20625 0.00853
296.70000 1.50976 -0.13185 0.03718
296.80000 1.54843 0.07638 -0.02408
296.90000 1.55827 0.09881 0.03334
297.00000 1.56380 -0.10596 0.06157
297.10000 1.52585 -0.07559 -0.02575
297.20000 1.57415 0.11615 -0.03481
297.30000 1.58919 0.12843 0.08740
297.40000 1.56915 0.33869 -0.04968
297.50000 1.57315 0.40981 -0.06151
297.60000 1.52046 0.32734 0.06034
297.70000 1.53184 0.20243 -0.03208
297.80000 1.60084 -0.03542 0.03804
297.90000 1.55530 -0.37066 0.01289
298.00000 1.49779 -0.19591 -0.01306
298.10000 1.58682 0.10383 0.03552
298.20000 1.58506 0.24084 -0.02489
298.30000 1.61502 0.24192 -0.05951
298.40000 1.52852 -0.00163 0.04838
298.50000 1.51974 -0.16137 -0.02417
298.60000 1.59009 -0.19154 -0.08792
298.70000 1.64175 -0.05692 0.05496
298.80000 1.55831 -0.02183 0.10130
298.90000 1.50691 0.06265 -0.02990
299.00000 1.55381 0.11318 -0.07472
299.10000 1.55905 0.13715 -0.00873
299.20000 1.50693 0.22199 0.01333
299.30000 1.56946 0.20485 0.04681
299.40000 1.55615 0.14575 -0.04690
299.50000 1.51874 -0.04313 0.01020
299.60000 1.55151 -0.05205 -0.01690
299.70000 1.49590 0.00331 0.05443
299.80000 1.60272 0.06004 -0.00216
299.90000 1.53935 0.01694 -0.04747
300.00000 1.55321 -0.10311 -0.00367
300.10000 1.55245 -0.30052 0.09149
300.20000 1.59005 -0.18041 -0.03537
300.30000 1.56834 -0.04959 0.03017
300.40000 1.53405 0.08668 -0.03012
300.50000 1.62800 0.12850 0.01444
300.60000 1.59066 -0.01423 -0.04602
300.70000 1.52704 0.04891 0.06006
300.80000 1.55541 0.08303 0.00970
300.90000 1.59477 0.13037 0.00439
301.00000 1.52773 0.14583 -0.00707
301.10000 1.58907 -0.02865 0.05091
301.20000 1.60056 -0.23688 0.01207
301.30000 1.51016 -0.25137 -0.06137
301.40000 1.49582 -0.12310 0.01629
301.50000 1.57898 -0.02518 -0.00898
301.60000 1.60568 0.00290 0.04230
301.70000 1.64653 0.10256 0.01779
301.80000 1.53292 0.03544 -0.00438
301.90000 1.52865 -0.03573 0.02006
302.00000 1.55976 -0.11079 0.01435
302.10000 1.59184 -0.26766 -0.00887
302.20000 1.58640 -0.25734 0.01836
302.30000 1.49234 -0.04962 0.05655
302.40000 1.58930 -0.07841 -0.04010
302.50000 1.55860 -0.02074 -0.01293
302.60000 1.52538 -0.00875 0.02831
302.70000 1.55908 0.04964 -0.05717
302.80000 1.58708 -0.00603 0.06129
302.90000 1.54985 0.02104 0.03562
303.00000 1.52536 0.04968 -0.04760
303.10000 1.46808 0.04877 -0.02363
303.20000 1.57480 0.18664 0.03920
303.30000 1.62032 0.19511 0.01203
303.40000 1.55405 0.02453 -0.04758
303.50000 1.52027 0.07452 0.02095
303.60000 1.60056 0.13578 -0.03404
303.70000 1.55181 0.08445 0.03815
303.80000 1.51304 -0.07636 0.01396
303.90000 1.53490 -0.14948 -0.02759
304.00000 1.60675 -0.11358 0.02818
304.10000 1.56383 -0.14133 0.01351
304.20000 1.52694 -0.05013 -0.03597
304.30000 1.56188 0.01621 0.05037
304.40000 1.51933 -0.12232 0.01609
304.50000 1.57136 -0.05886 -0.01251
304.60000 1.59483 0.06570 -0.00657
304.70000 1.55941 0.09445 -0.00864
304.80000 1.51460 -0.09079 0.01646
304.90000 1.54427 -0.18631 0.00343
305.00000 1.58459 0.00009 -0.05719
305.10000 1.56975 -0.08916 -0.00264
305.20000 1.55447 -0.09609 0.04912
305.30000 1.59457 0.16471 -0.01558
305.40000 1.52904 0.10801 -0.10344
305.50000 1.57681 0.10280 0.04441
305.60000 1.57052 0.07225 -0.00786
305.70000 1.53508 -0.10152 0.01334
305.80000 1.60240 -0.18698 -0.03705
305.90000 1.55162 -0.05857 0.01603
306.00000 1.52784 -0.07608 -0.03882
306.10000 1.57577 -0.03972 -0.05257
306.20000 1.63005 0.13041 -0.00362
306.30000 1.55119 0.10365 0.03652
306.40000 1.48774 0.11822 0.03061
306.50000 1.54627 0.01148 -0.03858
306.60000 1.56580 0.11752 -0.01477
306.70000 1.56420 0.11439 0.07111
306.80000 1.53715 0.04785 -0.04997
306.90000 1.56026 0.17550 -0.06455
307.00000 1.52910 0.04911 0.05177
307.10000 1.56190 -0.03830 0.02580
307.20000 1.52699 0.06152 -0.01153
307.30000 1.55754 0.08446 0.02240
307.40000 1.52424 -0.10782 -0.03301
307.50000 1.54842 -0.36714 0.01607
307.60000 1.57740 -0.36593 0.06662
307.70000 1.50851 -0.24728 -0.08518
307.80000 1.49100 -0.13797 -0.06250
307.90000 1.60685 0.02607 0.07767
308.00000 1.62214 0.02662 0.05740
308.10000 1.58834 0.04199 -0.07286
308.20000 1.52949 -0.04664 0.02806
308.30000 1.55937 0.01942 -0.00809
308.40000 1.53720 -0.08195 -0.03871
308.50000 1.57229 -0.08926 0.00295
308.60000 1.56978 -0.09410 0.04314
308.70000 1.55096 -0.17020 0.02979
308.80000 1.53903 -0.14663 -0.02317
308.90000 1.49444 -0.04264 -0.02155
309.00000 1.54357 0.20985 -0.00021
309.10000 1.63494 0.20643 -0.00157
309.20000 1.52402 0.19057 -0.02467
309.30000 1.53690 0.19759 -0.01109
309.40000 1.55024 0.17392 0.02837
309.50000 1.52396 0.20940 0.03655
309.60000 1.56892 0.12001 -0.03870
309.70000 1.60310 0.09677 0.02954
309.80000 1.60804 0.15808 -0.03897
309.90000 1.53619 0.10110 0.01032
310.00000 1.50865 -0.13159 -0.00538
310.10000 1.58219 -0.11808 0.01561
310.20000 1.57970 -0.20934 0.05310
310.30000 1.49753 -0.00129 -0.04032
310.40000 1.54487 0.01799 0.00836
310.50000 1.56373 0.01189 0.03918
310.60000 1.46262 -0.08314 -0.07858
310.70000 1.58676 -0.12482 -0.03782
310.80000 1.56709 -0.03339 -0.00262
310.90000 1.56781 -0.15228 -0.01509
311.00000 1.59208 -0.09173 0.02040
311.10000 1.54894 0.10346 0.06998
311.20000 1.50737 0.25912 -0.08961
311.30000 1.57073 0.19475 -0.03808
311.40000 1.52758 0.11259 0.09412
311.50000 1.58514 0.08363 -0.00568
311.60000 1.60248 -0.11761 -0.07230
311.70000 1.55361 0.01964 -0.00164
311.80000 1.62308 0.01298 0.00200
311.90000 1.59895 -0.16890 0.00912
312.00000 1.54218 -0.13137 0.01199
312.10000 1.49280 -0.08706 0.02674
312.20000 1.54244 -0.03501 -0.00286
312.30000 1.55891 0.02495 -0.05795
312.40000 1.56755 -0.01304 -0.04493
312.50000 1.52303 0.06447 0.00855
312.60000 1.51051 0.10326 0.00780
312.70000 1.59163 0.03085 -0.02591
312.80000 1.55554 0.07180 0.05340
312.90000 1.52766 0.14570 0.01854
313.00000 1.55924 0.19602 -0.06714
313.10000 1.63952 -0.00982 0.01786
313.20000 1.53544 -0.13598 0.03698
313.30000 1.50259 -0.08947 -0.00158
313.40000 1.47802 -0.13963 0.00035
313.50000 1.56605 -0.01466 0.05227
313.60000 1.61576 0.22875 0.02713
313.70000 1.57368 0.12803 -0.02987
313.80000 1.48263 -0.00680 -0.04194
313.90000 1.59977 -0.23389 0.02856
314.00000 1.56693 -0.02350 0.07019
314.10000 1.53158 0.21593 -0.01241
314.20000 1.62869 0.37180 -0.01253
314.30000 1.54404 0.15978 0.00283
314.40000 1.48375 0.09962 0.02883
314.50000 1.56896 0.11665 -0.04363
314.60000 1.60204 0.07306 0.04841
314.70000 1.56642 0.08201 0.06537
314.80000 1.59079 0.04607 -0.06284
314.90000 1.44304 -0.05988 -0.05815
315.00000 1.51079 -0.03761 0.10301
315.10000 1.58148 0.11076 -0.01129
315.20000 1.60303 0.24445 -0.04688
315.30000 1.58205 0.14994 0.03831
315.40000 1.56598 -0.05779 -0.02009
315.50000 1.56986 -0.03472 -0.01825
315.60000 1.48601 -0.07919 0.04147
315.70000 1.54461 0.07697 -0.03555
315.80000 1.52656 0.18817 0.01312
315.90000 1.52726 0.16301 -0.05228
316.00000 1.53291 -0.01865 0.00627
316.10000 1.63647 -0.16179 0.01526
316.20000 1.51071 -0.12612 -0.02269
316.30000 1.50885 -0.05787 0.02075
316.40000 1.57627 -0.02201 0.02764
316.50000 1.57892 -0.14384 -0.02009
316.60000 1.51811 -0.10873 -0.00712
316.70000 1.50632 -0.01192 0.01464
316.80000 1.58999 -0.19463 -0.01597
316.90000 1.57887 -0.06606 0.02537
317.00000 1.52848 0.08488 -0.02596
317.10000 1.54975 -0.00105 0.01693
317.20000 1.51502 -0.04747 0.03869
317.30000 1.56758 0.03940 -0.03222
317.40000 1.52665 0.04385 -0.03765
317.50000 1.55136 -0.06919 0.06342
317.60000 1.55509 -0.08415 0.00164
317.70000 1.52959 -0.11570 -0.07091
317.80000 1.53332 0.03568 0.00644
317.90000 1.55362 -0.08827 0.01411
318.00000 1.52997 -0.27249 0.02952
318.10000 1.53807 -0.28016 -0.05603
318.20000 1.55601 -0.04972 -0.01612
318.30000 1.55799 0.03431 0.02230
318.40000 1.56499 -0.08567 -0.02842
318.50000 1.58791 -0.19787 0.03812
318.60000 1.53502 -0.44466 0.00419
318.70000 1.53256 -0.27477 -0.06064
318.80000 1.53244 0.22799 0.00788
318.90000 1.56720 0.34500 0.06260
319.00000 1.57711 0.33429 0.02883
319.10000 1.62734 0.24456 -0.03210
319.20000 1.53546 -0.10403 0.03493
319.30000 1.55219 -0.15266 0.03716
319.40000 1.56445 -0.10881 0.04305
319.50000 1.57170 -0.12707 0.01321
319.60000 1.48995 -0.07959 -0.09361
319.70000 1.54592 0.03609 0.02814
319.80000 1.53887 -0.00526 0.00672
319.90000 1.57041 -0.07065 0.04023
320.00000 1.58524 -0.25769 -0.02852
320.10000 1.52856 -0.26986 0.00065
320.20000 1.50789 -0.05654 0.03264
320.30000 1.60751 0.01956 -0.03329
320.40000 1.61584 -0.02810 -0.08376
320.50000 1.51021 -0.06989 0.02966
320.60000 1.54797 -0.11062 0.04858
320.70000 1.57440 -0.11742 -0.01044
320.80000 1.57310 -0.06284 0.07409
320.90000 1.59088 -0.16111 -0.00907
321.00000 1.54374 -0.15628 -0.04583
321.10000 1.50710 0.09722 -0.05201
321.20000 1.56385 0.01810 0.08333
321.30000 1.59898 -0.02940 0.03614
321.40000 1.54919 -0.10864 -0.01782
321.50000 1.51425 -0.27718 -0.02157
321.60000 1.56396 -0.18046 0.02242
321.70000 1.67370 0.20673 -0.02148
321.80000 1.50630 0.30230 -0.03472
321.90000 1.54523 0.18253 -0.02803
322.00000 1.55367 0.09295 0.04664
322.10000 1.53292 -0.14488 0.01234
322.20000 1.55012 -0.07861 -0.00163
322.30000 1.57194 0.12203 -0.12301
322.40000 1.56579 -0.04638 0.04332
322.50000 1.52614 -0.10710 0.07089
322.60000 1.57440 0.00482 -0.06920
322.70000 1.56773 -0.05917 -0.02557
322.80000 1.55561 -0.07360 0.06191
322.90000 1.47690 0.03606 -0.02372
323.00000 1.55009 -0.07236 -0.01488
323.10000 1.55041 0.06767 -0.01308
323.20000 1.55941 0.24128 0.05600
323.30000 1.57166 0.14505 -0.02242
323.40000 1.61509 0.00363 -0.04803
323.50000 1.54374 0.04063 0.08225
323.60000 1.47608 -0.02446 0.04357
323.70000 1.60655 0.14381 -0.00693
323.80000 1.59793 -0.04476 -0.00654
323.90000 1.55617 -0.18617 -0.02446
324.00000 1.62137 -0.09388 -0.01353
324.10000 1.56080 0.19987 0.00882
324.20000 1.49994 0.13475 0.02128
324.30000 1.49531 0.15450 -0.00744
324.40000 1.51035 -0.05053 -0.04153
324.50000 1.56224 -0.16205 0.03197
324.60000 1.58308 -0.12308 0.02236
324.70000 1.56288 -0.09148 0.01565
324.80000 1.56668 -0.06229 -0.08003
324.90000 1.57217 0.08548 -0.01153
325.00000 1.58783 0.18474 0.02377
325.10000 1.54379 0.07226 -0.00622
325.20000 1.58014 -0.03703 0.06926
325.30000 1.51963 0.02874 -0.01973
325.40000 1.55915 0.07154 -0.00324
325.50000 1.58074 0.03647 0.03763
325.60000 1.53344 0.08596 0.00370
325.70000 1.54191 0.06036 -0.06918
325.80000 1.51729 0.01288 -0.00450
325.90000 1.60008 0.03988 0.06576
326.00000 1.53477 0.12532 -0.03041
326.10000 1.51734 0.03219 -0.00201
326.20000 1.55749 0.12220 -0.01173
326.30000 1.55991 0.05344 0.03551
326.40000 1.56159 0.04705 0.00716
326.50000 1.56121 0.05295 -0.02108
326.60000 1.54626 0.21618 -0.01981
326.70000 1.57762 0.08822 0.01791
326.80000 1.54242 -0.19274 -0.04496
326.90000 1.51346 -0.04925 0.02491
327.00000 1.57439 0.13409 0.03108
327.10000 1.53474 0.25263 -0.03141
327.20000 1.53964 0.08694 0.05041
327.30000 1.58216 -0.09650 -0.02436
327.40000 1.55106 0.00410 -0.00354
327.50000 1.52398 -0.01988 0.02107
327.60000 1.53860 -0.07367 -0.02420
327.70000 1.53261 -0.15370 0.05394
327.80000 1.54375 -0.04755 0.02933
327.90000 1.55475 0.11100 -0.03453
328.00000 1.53117 0.00848 0.00744
328.10000 1.56817 0.14261 0.03644
328.20000 1.52742 -0.01006 -0.02753
328.30000 1.50300 -0.39301 0.00051
328.40000 1.57078 -0.34860 -0.01263
328.50000 1.56128 -0.08624 -0.01589
328.60000 1.59320 -0.05169 0.05441
328.70000 1.52541 -0.15165 0.06842
328.80000 1.53518 -0.34412 -0.05313
328.90000 1.63237 -0.25217 -0.00931
329.00000 1.54419 -0.00233 0.05583
329.10000 1.53157 0.05059 -0.05681
329.20000 1.60414 0.09727 0.00337
329.30000 1.59917 0.30747 0.03495
329.40000 1.52912 0.08850 0.01794
329.50000 1.50689 -0.28318 0.03495
329.60000 1.56968 -0.30691 -0.03096
329.70000 1.62914 -0.10959 -0.02771
329.80000 1.54208 0.02263 0.01782
329.90000 1.52464 0.15968 -0.01044
330.00000 1.56725 0.19829 0.01055
330.10000 1.64097 0.09694 0.03372
330.20000 1.57510 0.14421 0.04030
330.30000 1.45579 0.26160 -0.01864
330.40000 1.58864 0.26972 -0.04236
330.50000 1.65098 0.19298 -0.01332
330.60000 1.54717 0.03520 -0.00763
330.70000 1.52573 -0.03115 0.09303
330.80000 1.51893 -0.06341 0.02371
330.90000 1.59503 0.17405 -0.02070
331.00000 1.59757 0.21886 -0.01462
331.10000 1.51492 0.21504 0.08274
331.20000 1.49256 0.14289 0.00204
331.30000 1.56320 0.00037 -0.06744
331.40000 1.58217 0.03734 -0.01595
331.50000 1.49706 0.03775 0.02566
331.60000 1.48944 -0.12157 -0.07802
331.70000 1.58523 0.13000 0.06321
331.80000 1.54784 0.21880 -0.03941
331.90000 1.57356 0.29120 -0.04122
332.00000 1.53481 0.25302 0.01272
332.10000 1.57843 0.04284 -0.00488
332.20000 1.55631 0.07123 -0.03818
332.30000 1.53623 0.17540 0.02404
332.40000 1.57260 0.11761 0.04544
332.50000 1.50986 -0.22770 -0.05850
332.60000 1.54084 -0.29329 0.00959
332.70000 1.56154 -0.21672 0.05776
332.80000 1.54013 0.01004 -0.03885
332.90000 1.58631 0.00164 0.05081
333.00000 1.60521 -0.15417 -0.00700
333.10000 1.52307 -0.11274 -0.03563
333.20000 1.54933 0.07907 0.03152
333.30000 1.58381 0.02906 0.03698
333.40000 1.57293 0.10707 -0.03127
333.50000 1.58183 -0.00020 -0.01849
333.60000 1.56380 0.25883 0.01621
333.70000 1.54661 0.47094 -0.02452
333.80000 1.54441 0.32866 -0.01948
333.90000 1.57031 0.20083 0.02313
334.00000 1.53160 0.13821 -0.00578
334.10000 1.51867 -0.06202 0.01015
334.20000 1.57615 -0.18336 -0.00417
334.30000 1.56564 -0.00486 -0.00607
334.40000 1.56215 0.16643 -0.03203
334.50000 1.54826 0.05209 0.00919
334.60000 1.57266 -0.06228 -0.00025
334.70000 1.56122 -0.15014 0.00538
334.80000 1.50581 -0.14574 -0.01461
334.90000 1.56476 -0.12552 0.01389
335.00000 1.60023 -0.12401 -0.05398
335.10000 1.51310 -0.12476 -0.03052
335.20000 1.56103 -0.14140 0.00494
335.30000 1.57314 -0.00207 -0.00719
335.40000 1.53272 0.07624 -0.02965
335.50000 1.60004 0.25585 0.01550
335.60000 1.58374 0.25534 -0.04312
335.70000 1.51454 0.06792 0.00652
335.80000 1.53527 -0.07124 -0.03577
335.90000 1.63116 -0.07580 -0.01946
336.00000 1.57951 -0.06626 -0.03654
336.10000 1.48643 0.11303 0.03382
336.20000 1.55715 0.06774 -0.07162
336.30000 1.58413 -0.11601 0.04860
336.40000 1.57373 -0.07331 0.00271
336.50000 1.49639 -0.13736 0.01517
336.60000 1.52854 -0.14283 -0.01543
336.70000 1.59240 -0.09846 -0.05646
336.80000 1.52073 -0.09756 0.11222
336.90000 1.53259 -0.07963 0.06271
337.00000 1.56468 -0.01074 -0.07062
337.10000 1.50359 0.05853 -0.01686
337.20000 1.61271 0.06864 -0.00667
337.30000 1.52048 0.03927 -0.02964
337.40000 1.49444 0.25341 -0.00818
337.50000 1.58676 0.29843 -0.05785
337.60000 1.61724 0.13256 -0.01011
337.70000 1.54589 0.05920 0.02978
337.80000 1.60163 0.13198 0.01818
337.90000 1.58385 0.10049 -0.05800
338.00000 1.58105 0.03591 0.01260
338.10000 1.57058 0.02492 -0.00086
338.20000 1.53741 0.03214 -0.05547
338.30000 1.57407 0.09970 0.04547
338.40000 1.52578 0.20885 0.03819
338.50000 1.56391 0.25396 -0.04947
338.60000 1.53711 0.01300 -0.00371
338.70000 1.58111 0.00135 -0.01995
338.80000 1.54566 0.15071 -0.04221
338.90000 1.57688 0.18417 0.02225
339.00000 1.58414 0.01671 -0.09524
339.10000 1.50809 -0.20284 0.00904
339.20000 1.56728 -0.13592 0.04413
339.30000 1.54611 -0.10247 -0.05030
339.40000 1.52973 -0.06106 0.03265
339.50000 1.49811 0.14070 -0.02046
339.60000 1.56909 0.15627 0.01011
339.70000 1.57041 0.07838 0.04909
339.80000 1.59556 -0.13007 -0.00495
339.90000 1.53579 -0.03194 0.01609
340.00000 1.56511 -0.02307 -0.00162
340.10000 1.58376 -0.01148 -0.00330
340.20000 1.54327 0.05683 0.03624
340.30000 1.54366 -0.05676 -0.04685
340.40000 1.59646 -0.21379 -0.04055
340.50000 1.56707 -0.08515 0.03930
340.60000 1.49342 0.01813 0.01651
340.70000 1.46225 0.12772 -0.04860
340.80000 1.58834 0.26428 0.04085
340.90000 1.62653 0.20281 -0.05218
341.00000 1.56421 0.14099 -0.01768
341.10000 1.53818 0.14670 0.04362
341.20000 1.50622 0.01758 0.00165
341.30000 1.56014 0.06709 0.02218
341.40000 1.56830 -0.08216 0.00056
341.50000 1.54474 -0.15696 -0.00922
341.60000 1.56642 -0.12074 0.02871
341.70000 1.60397 -0.16090 -0.03549
341.80000 1.54017 -0.21567 0.01862
341.90000 1.54855 -0.09719 -0.03631
342.00000 1.55465 0.01700 -0.00708
342.10000 1.54151 0.24138 0.02254
342.20000 1.56360 0.31925 0.01584
342.30000 1.54407 0.30844 -0.02360
342.40000 1.53164 -0.08950 0.00759
342.50000 1.55367 -0.49492 -0.00432
342.60000 1.57194 -0.65031 -0.05835
342.70000 1.54529 -0.39935 -0.02234
342.80000 1.58356 -0.08793 0.00803
342.90000 1.58570 0.18493 0.01925
343.00000 1.52037 0.15984 0.07042
343.10000 1.42297 -0.02334 0.01693
343.20000 1.61891 -0.21436 -0.06364
343.30000 1.58489 -0.15155 0.05548
343.40000 1.57625 -0.11140 -0.01154
343.50000 1.53224 -0.03185 -0.02736
343.60000 1.52816 0.07305 0.04612
343.70000 1.60551 -0.03609 0.00643
343.80000 1.53110 -0.12503 0.03746
343.90000 1.53887 -0.10068 -0.00216
344.00000 1.53843 -0.15628 -0.03236
344.10000 1.56352 -0.16464 0.01677
344.20000 1.58814 -0.10996 -0.00769
344.30000 1.58103 -0.11219 -0.03165
344.40000 1.52228 0.02416 0.07562
344.50000 1.58986 0.08559 0.00608
344.60000 1.55572 0.19935 -0.04136
344.70000 1.56337 0.26037 0.05263
344.80000 1.51038 0.33960 -0.02853
344.90000 1.56881 0.24455 -0.03346
345.00000 1.57721 -0.14193 0.01374
345.10000 1.59970 -0.24295 0.02551
345.20000 1.57743 -0.10445 0.00410
345.30000 1.56565 -0.12675 -0.02391
345.40000 1.52273 -0.07400 -0.01200
345.50000 1.54761 -0.03837 0.04333
345.60000 1.59050 -0.19263 -0.03525
345.70000 1.56807 -0.12912 -0.02501
345.80000 1.53588 -0.05326 0.05566
345.90000 1.57773 0.01187 -0.01368
346.00000 1.55768 0.17622 -0.01152
346.10000 1.57971 0.12119 -0.00054
346.20000 1.53683 0.09895 0.02965
346.30000 1.60294 -0.06870 -0.02730
346.40000 1.51372 -0.11515 -0.00697
346.50000 1.55047 -0.09528 0.00473
346.60000 1.54865 0.17067 -0.02999
346.70000 1.57073 0.40234 0.02702
346.80000 1.56560 0.23747 0.03498
346.90000 1.54227 0.05595 -0.01966
347.00000 1.56218 -0.03168 -0.06306
347.10000 1.59620 0.06741 -0.01708
347.20000 1.55007 0.05288 0.04336
347.30000 1.51420 -0.11148 -0.01169
347.40000 1.52351 -0.19190 -0.01260
347.50000 1.57388 -0.04449 -0.03164
347.60000 1.55143 0.03222 0.02731
347.70000 1.57283 -0.04761 -0.04590
347.80000 1.56659 -0.20747 0.01455
347.90000 1.53065 -0.11373 -0.01192
348.00000 1.55009 -0.04567 -0.02674
348.10000 1.57336 0.00068 -0.05562
348.20000 1.55120 0.01770 0.01139
348.30000 1.59790 0.02598 0.02503
348.40000 1.58020 0.00947 -0.00526
348.50000 1.55512 0.05371 -0.01820
348.60000 1.52182 -0.09579 -0.03799
348.70000 1.51734 -0.22190 0.02502
348.80000 1.52681 -0.07912 0.00402
348.90000 1.55870 0.06096 -0.03096
349.00000 1.53654 0.01739 0.02477
349.10000 1.52371 -0.04066 -0.01457
349.20000 1.58777 -0.08346 -0.03826
349.30000 1.56868 -0.42735 0.00078
349.40000 1.46546 -0.57934 0.02196
349.50000 1.51074 -0.19335 0.03138
349.60000 1.52078 0.03968 0.02783
349.70000 1.55446 0.05063 -0.03192
349.80000 1.55710 -0.05037 0.00797
349.90000 1.56086 -0.22087 0.01489
350.00000 1.50905 0.00445 -0.01831
350.10000 1.59354 0.16880 -0.06990
350.20000 1.57820 0.07717 0.04406
350.30000 1.57855 -0.01800 0.02974
350.40000 1.52852 -0.08559 0.01515
350.50000 1.54198 -0.28274 0.03908
350.60000 1.51457 -0.00891 -0.08825
350.70000 1.56470 0.18601 0.03950
350.80000 1.62371 0.38777 -0.01191
350.90000 1.55394 0.32607 -0.01412
351.00000 1.58108 0.15588 0.00496
351.10000 1.53477 0.06542 -0.03416
351.20000 1.53307 -0.05217 -0.02332
351.30000 1.59902 -0.13290 0.07153
351.40000 1.55160 -0.25169 0.04120
351.50000 1.52829 -0.15929 -0.00913
351.60000 1.53954 -0.01432 -0.00421
351.70000 1.63460 0.02158 -0.00503
351.80000 1.51591 0.03365 -0.00813
351.90000 1.53866 0.13055 0.06285
352.00000 1.58085 -0.06953 -0.02939
352.10000 1.56200 -0.35880 0.01675
352.20000 1.55470 -0.33287 0.01789
352.30000 1.53476 -0.14673 0.08765
352.40000 1.60238 -0.04356 -0.06734
352.50000 1.52805 -0.00270 0.01804
352.60000 1.50377 -0.03326 0.02471
352.70000 1.54835 -0.03336 -0.01744
352.80000 1.61712 0.04275 0.00626
352.90000 1.58385 0.12785 -0.03412
353.00000 1.55636 0.03482 -0.04049
353.10000 1.54966 0.07416 0.02083
353.20000 1.55949 0.13950 -0.02205
353.30000 1.53069 0.03860 0.01393
353.40000 1.50920 -0.11666 0.00284
353.50000 1.58002 -0.04189 -0.07999
353.60000 1.56955 0.21991 0.01012
353.70000 1.59007 0.24430 0.03391
353.80000 1.50505 0.08938 -0.00634
353.90000 1.57208 -0.06495 -0.02053
354.00000 1.58347 0.03198 0.00322
354.10000 1.51589 -0.00898 0.01319
354.20000 1.55975 0.18613 -0.04692
354.30000 1.57980 0.15260 -0.02164
354.40000 1.51084 -0.07276 0.05441
354.50000 1.54956 -0.19824 -0.00714
354.60000 1.58061 -0.12068 0.02817
354.70000 1.57072 -0.01393 -0.02344
354.80000 1.55882 0.19375 0.01644
354.90000 1.54860 0.22425 0.03393
355.00000 1.62443 0.16653 -0.00032
355.10000 1.52795 0.18095 0.01181
355.20000 1.58234 0.05743 -0.05042
355.30000 1.56811 -0.04839 -0.02538
355.40000 1.51136 -0.07698 0.01080
355.50000 1.52324 -0.07053 -0.00208
355.60000 1.54793 -0.00939 -0.02867
355.70000 1.60463 -0.09206 0.01408
355.80000 1.54757 -0.07379 0.03868
355.90000 1.58896 -0.03285 0.00983
356.00000 1.52345 0.08946 -0.01652
356.10000 1.57411 0.21191 -0.00281
356.20000 1.57560 0.10704 -0.02887
356.30000 1.53435 -0.12505 0.01471
356.40000 1.50211 -0.20000 -0.02129
356.50000 1.58928 -0.00481 0.06469
356.60000 1.56876 0.02444 0.01579
356.70000 1.56575 0.09575 -0.07318
356.80000 1.52401 -0.01350 -0.01008
356.90000 1.56876 -0.13657 0.06031
357.00000 1.57821 0.04688 -0.03475
357.10000 1.48041 0.16202 0.02824
357.20000 1.59335 -0.15920 0.02852
357.30000 1.54380 -0.17362 -0.04490
357.40000 1.55402 -0.08837 0.02345
357.50000 1.55292 0.07796 -0.00100
357.60000 1.53131 0.24420 -0.01726
357.70000 1.55843 0.35924 0.01983
357.80000 1.54357 0.06662 0.01256
357.90000 1.62452 -0.13517 -0.07579
358.00000 1.57727 -0.11654 0.04277
358.10000 1.49162 0.01837 0.04842
358.20000 1.54470 0.10932 0.00816
358.30000 1.53582 0.29978 -0.04348
358.40000 1.53127 0.08168 0.05879
358.50000 1.55978 -0.09779 0.02913
358.60000 1.57532 -0.05269 -0.07921
358.70000 1.52825 0.13927 -0.00278
358.80000 1.55484 0.40175 0.06314
358.90000 1.57010 0.26015 -0.03781
359.00000 1.48861 0.20895 -0.04600
359.10000 1.62562 0.25387 0.00503
359.20000 1.55942 0.19805 0.03417
359.30000 1.50422 -0.10277 -0.00555
359.40000 1.61722 -0.27180 -0.03564
359.50000 1.56414 -0.26123 -0.00215
359.60000 1.52673 -0.18596 -0.01774
359.70000 1.56040 -0.09004 0.02153
359.80000 1.56524 -0.05920 0.02803
359.90000 1.58691 -0.06955 -0.00631
360.00000 1.59996 0.07097 -0.01846
360.10000 1.58029 0.15107 0.05314
360.20000 1.55446 0.21418 -0.05014
360.30000 1.57583 0.06440 -0.02599
360.40000 1.55342 -0.13207 0.03279
360.50000 1.48853 0.12418 -0.00310
360.60000 1.57283 0.19791 0.01905
360.70000 1.54662 0.06552 0.05508
360.80000 1.56350 0.11765 0.00168
360.90000 1.58871 0.16779 -0.00681
361.00000 1.52217 0.19855 0.01735
361.10000 1.54388 0.10624 -0.03147
361.20000 1.54847 0.15571 -0.01964
361.30000 1.56738 0.26043 0.00990
361.40000 1.56918 0.18402 0.04512
361.50000 1.59077 0.11936 -0.03417
361.60000 1.55870 0.01867 0.00718
361.70000 1.49620 -0.24612 0.08321
361.80000 1.58861 -0.13718 0.02013
361.90000 1.57198 0.22223 -0.05824
362.00000 1.53439 0.45818 -0.04899
362.10000 1.56372 0.27878 0.04172
362.20000 1.60872 -0.13299 0.01915
362.30000 1.50090 -0.26833 0.03560
362.40000 1.52767 -0.08538 -0.04919
362.50000 1.60881 0.08064 0.04575
362.60000 1.58569 0.07204 0.07018
362.70000 1.51983 -0.07025 -0.05598
362.80000 1.58100 -0.21313 0.00025
362.90000 1.57031 -0.13597 0.02283
363.00000 1.52986 -0.20566 -0.00532
363.10000 1.56201 -0.09895 -0.01676
363.20000 1.57230 -0.19321 -0.01885
363.30000 1.49333 -0.12724 0.04236
363.40000 1.53214 0.19689 0.00171
363.50000 1.52044 0.39150 -0.01602
363.60000 1.56131 0.18881 -0.04543
363.70000 1.56943 0.01434 0.01039
363.80000 1.52860 -0.02516 0.05578
363.90000 1.55671 0.04951 -0.02882
364.00000 1.59449 0.05088 -0.06528
364.10000 1.56295 -0.01786 0.01030
364.20000 1.54734 0.06469 0.04843
364.30000 1.55309 -0.05323 0.05004
364.40000 1.50368 -0.12773 0.01425
364.50000 1.58943 0.08628 -0.05153
364.60000 1.57871 0.26574 -0.01671
364.70000 1.55391 0.01464 0.00657
364.80000 1.52929 -0.15344 -0.00830
364.90000 1.59329 -0.30427 0.02582
365.00000 1.60851 -0.20316 -0.02012
365.10000 1.54199 -0.00223 0.00626
365.20000 1.58521 -0.03573 0.08200
365.30000 1.53814 0.11316 -0.00002
365.40000 1.53160 0.19934 -0.02601
365.50000 1.59819 0.30335 0.01706
365.60000 1.57367 0.05341 0.02120
365.70000 1.54454 -0.00259 -0.02710
365.80000 1.54358 0.06065 -0.03475
365.90000 1.60290 0.07960 0.03815
366.00000 1.56833 0.17722 -0.01882
366.10000 1.50400 0.06606 0.00771
366.20000 1.57275 0.01704 0.03072
366.30000 1.56947 0.07919 0.02794
366.40000 1.53049 -0.14904 -0.05447
366.50000 1.54512 -0.25045 0.04274
366.60000 1.61925 -0.08256 -0.00136
366.70000 1.51675 0.06020 0.01273
366.80000 1.56274 -0.02164 -0.02922
366.90000 1.57050 -0.05335 0.05176
367.00000 1.57439 -0.03681 -0.04863
367.10000 1.52468 0.09479 -0.00459
367.20000 1.60456 0.09521 0.04222
367.30000 1.54895 0.09472 -0.05800
367.40000 1.50797 0.00695 0.01706
367.50000 1.54204 0.04326 0.01562
367.60000 1.61464 -0.04483 -0.00721
367.70000 1.57562 -0.12047 0.00150
367.80000 1.50156 -0.01763 -0.00839
367.90000 1.54941 0.07969 -0.03789
368.00000 1.58154 0.13116 0.04911
368.10000 1.55570 0.01984 0.06904
368.20000 1.56903 0.14623 -0.07075
368.30000 1.60385 0.37663 -0.03721
368.40000 1.54243 0.41706 0.00517
368.50000 1.54724 0.27818 0.04521
368.60000 1.54498 -0.09583 -0.01568
368.70000 1.56045 -0.30869 -0.03035
368.80000 1.53377 -0.17384 -0.00868
368.90000 1.55429 -0.19837 0.00054
369.00000 1.56682 -0.09480 0.05054
369.10000 1.63524 0.02202 -0.01713
369.20000 1.52727 0.02929 0.01921
369.30000 1.50399 -0.03848 -0.01284
369.40000 1.53159 -0.10146 -0.00866
369.50000 1.59246 -0.08462 -0.01992
369.60000 1.58560 -0.17104 0.00610
369.70000 1.48599 -0.07553 0.04879
369.80000 1.54441 0.14230 -0.02675
369.90000 1.60315 0.17563 0.01451
370.00000 1.52427 0.10786 -0.00410
370.10000 1.54256 0.27655 -0.02064
370.20000 1.52711 0.32643 -0.01091
370.30000 1.58454 0.14614 -0.02722
370.40000 1.58709 0.08046 -0.02010
370.50000 1.50277 0.07497 0.08397
370.60000 1.48370 0.03555 -0.00868
370.70000 1.61041 0.05912 -0.07018
370.80000 1.59751 -0.08004 0.01941
370.90000 1.56199 -0.14111 0.03089
371.00000 1.52302 -0.05932 0.02724
371.10000 1.58750 0.09856 -0.01520
371.20000 1.55763 0.22566 -0.03169
371.30000 1.59613 0.27307 0.04489
371.40000 1.59896 0.01990 -0.00563
371.50000 1.48475 0.09403 0.00399
371.60000 1.57496 0.06222 -0.02168
371.70000 1.55235 -0.15669 0.00444
371.80000 1.53690 -0.20251 -0.00687
371.90000 1.53114 -0.02472 -0.05052
372.00000 1.57208 -0.05812 -0.01884
372.10000 1.63084 -0.19715 -0.00011
372.20000 1.53460 -0.07235 0.01829
372.30000 1.57974 -0.11058 -0.06676
372.40000 1.54984 -0.03956 0.03199
372.50000 1.56068 0.11606 -0.02203
372.60000 1.55749 0.27288 0.01278
372.70000 1.56806 0.22909 -0.01673
372.80000 1.51587 0.06582 0.08941
372.90000 1.57759 -0.16449 -0.03548
373.00000 1.56092 -0.20229 -0.09622
373.10000 1.58535 -0.06787 0.04672
373.20000 1.55933 0.03992 -0.04552
373.30000 1.57604 0.08590 -0.06990
373.40000 1.57059 -0.02974 -0.01188
373.50000 1.53720 -0.13273 0.00983
373.60000 1.60848 -0.25452 0.06547
373.70000 1.52972 -0.21673 0.03476
373.80000 1.50652 -0.11198 -0.06299
373.90000 1.61323 -0.07449 -0.01057
374.00000 1.57008 -0.03158 -0.00104
374.10000 1.54437 0.00739 -0.03922
374.20000 1.55752 0.02165 -0.01522
374.30000 1.50476 0.12278 0.01764
374.40000 1.57850 0.00947 0.02351
374.50000 1.59169 -0.13326 0.00949
374.60000 1.53137 -0.18797 -0.00278
374.70000 1.60031 0.04139 -0.00380
374.80000 1.61660 0.07248 -0.02174
374.90000 1.54041 -0.02729 0.01930
375.00000 1.54365 -0.02918 0.00084
375.10000 1.57630 0.06195 -0.00792
375.20000 1.53100 0.07680 0.02905
375.30000 1.59765 0.21000 0.01663
375.40000 1.61244 0.34006 0.01355
375.50000 1.54425 0.21146 -0.00612
375.60000 1.51918 -0.00953 -0.02977
375.70000 1.57939 0.07222 -0.01131
375.80000 1.58862 0.01141 0.04806
375.90000 1.51537 -0.14547 -0.02307
376.00000 1.49692 -0.20567 0.03485
376.10000 1.59027 -0.33628 -0.05923
376.20000 1.58732 -0.17603 0.02076
376.30000 1.58228 0.05349 0.02755
376.40000 1.54113 0.06337 -0.03927
376.50000 1.48924 0.09869 -0.01224
376.60000 1.55738 0.02478 0.04148
376.70000 1.58202 0.01868 -0.05161
376.80000 1.58093 0.10277 0.04150
376.90000 1.54841 0.17035 0.02908
377.00000 1.56999 0.29235 -0.01075
377.10000 1.55872 0.34490 -0.05294
377.20000 1.60108 0.08644 0.03565
377.30000 1.56595 -0.17419 -0.01305
377.40000 1.55420 -0.10549 -0.01431
377.50000 1.54058 -0.06618 0.02362
377.60000 1.57337 -0.19984 -0.05247
377.70000 1.56111 -0.27757 -0.02696
377.80000 1.52003 -0.17159 -0.02728
377.90000 1.56165 0.05906 0.01102
378.00000 1.51502 0.13166 0.00946
378.10000 1.57222 0.02530 -0.03895
378.20000 1.59222 -0.05713 0.01294
378.30000 1.57572 -0.23294 0.01418
378.40000 1.52917 -0.43283 0.02284
378.50000 1.56351 -0.50599 0.00078
378.60000 1.55572 -0.14170 -0.03259
378.70000 1.59116 0.06911 0.03842
378.80000 1.56889 0.05402 0.08424
378.90000 1.47925 -0.10483 -0.04652
379.00000 1.53413 -0.16759 -0.01334
379.10000 1.58469 -0.07206 0.02413
379.20000 1.54969 0.15515 -0.02390
379.30000 1.54947 0.27633 0.03010
379.40000 1.50751 0.14698 0.01321
379.50000 1.53710 -0.05116 -0.02711
379.60000 1.53376 -0.18984 -0.02842
379.70000 1.54839 -0.10821 0.02875
379.80000 1.57318 -0.11358 -0.04850
379.90000 1.56267 -0.08466 0.03553
380.00000 1.55171 0.02400 0.01224
380.10000 1.55411 -0.04622 -0.02870
380.20000 1.53092 -0.11615 0.01020
380.30000 1.58717 -0.01948 -0.03674
380.40000 1.54497 0.11601 0.01765
380.50000 1.50013 0.02133 -0.01507
380.60000 1.58793 -0.05738 -0.02702
380.70000 1.55022 -0.03380 -0.03814
380.80000 1.55463 -0.10641 0.01971
380.90000 1.60532 -0.08566 0.07995
381.00000 1.51228 -0.09725 -0.10723
381.10000 1.60026 0.14968 0.00436
381.20000 1.48374 0.20752 0.05781
381.30000 1.55300 0.07826 -0.04770
381.40000 1.60973 -0.16300 0.01727
381.50000 1.52412 -0.08857 -0.04148
381.60000 1.51472 0.20716 0.01920
381.70000 1.59349 0.27044 -0.00249
381.80000 1.55546 0.06031 0.02384
381.90000 1.52061 -0.02710 -0.02779
382.00000 1.57310 -0.10728 0.01784
382.10000 1.60802 -0.10478 -0.01239
382.20000 1.47954 -0.10131 0.04261
382.30000 1.54454 -0.06692 -0.08027
382.40000 1.58627 -0.13211 -0.02738
382.50000 1.55421 -0.10759 0.02091
382.60000 1.45705 -0.02006 0.03426
382.70000 1.52915 0.04689 0.01067
382.80000 1.60688 0.06020 -0.02618
382.90000 1.56366 0.06685 -0.01589
383.00000 1.52743 -0.17968 -0.04163
383.10000 1.55222 -0.21595 0.00822
383.20000 1.56349 -0.14974 -0.00368
383.30000 1.51990 -0.10400 0.02877
383.40000 1.58566 0.01093 -0.02572
383.50000 1.57636 -0.06605 0.02844
383.60000 1.57844 -0.23659 -0.01060
383.70000 1.51608 -0.23417 -0.02471
383.80000 1.53320 -0.03967 0.04586
383.90000 1.61021 -0.06246 0.03229
384.00000 1.56655 -0.22531 0.02210
384.10000 1.56845 -0.19639 0.02778
384.20000 1.55947 0.13655 -0.03454
384.30000 1.62229 0.27135 0.04020
384.40000 1.57621 0.12463 0.00275
384.50000 1.50563 -0.24980 -0.04474
384.60000 1.53897 -0.35471 0.02829
384.70000 1.54248 -0.26767 0.02000
384.80000 1.57368 -0.15588 -0.02190
384.90000 1.53097 0.01407 -0.01671
385.00000 1.55052 0.19171 0.03531
385.10000 1.60247 0.30446 -0.02181
385.20000 1.53103 0.09467 -0.01109
385.30000 1.53971 0.05296 0.00863
385.40000 1.57138 0.16662 -0.02212
385.50000 1.54379 0.07153 -0.07169
385.60000 1.54240 -0.06281 0.11458
385.70000 1.55583 0.02273 -0.02697
385.80000 1.54498 0.26724 -0.08258
385.90000 1.57188 0.17506 -0.01359
386.00000 1.59521 0.18923 0.02653
386.10000 1.54163 0.13522 0.00351
386.20000 1.54200 0.05270 0.02788
386.30000 1.58860 0.00554 0.02449
386.40000 1.56575 -0.04647 -0.06481
386.50000 1.58043 -0.14053 0.05325
386.60000 1.55159 -0.12753 -0.03153
386.70000 1.54768 0.09908 -0.04788
386.80000 1.51850 0.14810 -0.01769
386.90000 1.50981 0.08183 0.07204
387.00000 1.56427 -0.02839 -0.05246
387.10000 1.51558 0.03144 0.03485
387.20000 1.55544 0.10678 0.05974
387.30000 1.58008 0.16535 -0.08046
387.40000 1.60877 -0.02543 0.02284
387.50000 1.55905 -0.16248 -0.00067
387.60000 1.52746 -0.17897 -0.04007
387.70000 1.52035 0.04988 0.00900
387.80000 1.51102 0.01245 0.03650
387.90000 1.55887 -0.08669 -0.05030
388.00000 1.55675 -0.03160 0.05614
388.10000 1.59523 -0.05629 -0.01577
388.20000 1.56472 -0.19146 -0.03763
388.30000 1.52082 -0.40708 0.00215
388.40000 1.58360 -0.33103 0.04594
388.50000 1.57895 -0.25195 0.01914
388.60000 1.55930 -0.14455 -0.00447
388.70000 1.57592 -0.00521 0.03226
388.80000 1.55789 -0.09333 -0.01719
388.90000 1.56960 -0.13228 -0.03675
389.00000 1.57526 -0.14431 0.01030
389.10000 1.54909 -0.19090 0.01130
389.20000 1.57342 -0.18243 0.01796
389.30000 1.59496 -0.18181 0.01211
389.40000 1.56451 0.01489 -0.05338
389.50000 1.52186 0.04763 0.04352
389.60000 1.57765 -0.05653 0.03299
389.70000 1.54226 0.00157 -0.01216
389.80000 1.53922 0.19035 -0.03951
389.90000 1.60732 0.22296 0.02691
390.00000 1.54895 0.14798 -0.01224
390.10000 1.58948 0.03333 -0.02682
390.20000 1.56019 0.06780 0.05085
390.30000 1.52981 -0.02109 0.02942
390.40000 1.58384 0.01441 -0.02542
390.50000 1.56061 0.17043 0.00682
390.60000 1.55428 0.31045 0.03796
390.70000 1.55988 0.26874 0.02562
390.80000 1.58161 0.20752 -0.06752
390.90000 1.61764 0.24675 -0.05623
391.00000 1.57948 0.20010 0.02372
391.10000 1.63872 0.13795 0.00252
391.20000 1.50633 -0.01165 -0.00980
391.30000 1.54473 -0.09268 -0.01880
391.40000 1.57122 -0.05855 0.02349
391.50000 1.55209 0.04619 -0.01871
391.60000 1.55492 0.11645 0.02465
391.70000 1.53308 0.07802 0.01679
391.80000 1.57797 -0.01031 -0.06336
391.90000 1.63592 0.06563 0.03325
392.00000 1.59149 -0.10796 0.01831
392.10000 1.56087 -0.05131 -0.03064
392.20000 1.52388 -0.03497 -0.00549
392.30000 1.57167 -0.09327 0.04577
392.40000 1.57049 -0.14703 -0.03773
392.50000 1.57922 -0.11842 -0.04534
392.60000 1.56270 -0.06815 0.02900
392.70000 1.50720 0.11850 0.03196
392.80000 1.55982 0.32772 -0.03703
392.90000 1.63367 0.27745 0.02137
393.00000 1.56429 0.10564 -0.03078
393.10000 1.50947 0.09624 0.01602
393.20000 1.54172 0.12472 0.06633
393.30000 1.57356 0.10823 -0.03293
393.40000 1.51533 0.06389 -0.00442
393.50000 1.58743 -0.05824 0.07403
393.60000 1.51313 -0.27973 -0.06621
393.70000 1.56876 -0.29362 0.01609
393.80000 1.56063 -0.01626 0.05447
393.90000 1.58655 0.13915 -0.08821
394.00000 1.52572 0.15928 -0.06046
394.10000 1.53227 -0.06495 0.00614
394.20000 1.57756 -0.14608 -0.02385
394.30000 1.57636 -0.04051 0.00198
394.40000 1.58824 0.09991 0.00850
394.50000 1.55507 0.35691 0.02888
394.60000 1.59199 0.40861 -0.04288
394.70000 1.53795 0.27831 0.02331
394.80000 1.54500 0.03294 -0.02384
394.90000 1.54756 0.16080 0.01314
395.00000 1.58661 0.00579 -0.02384
395.10000 1.55966 -0.18927 0.02767
395.20000 1.55228 -0.10668 -0.01793
395.30000 1.55800 0.16892 0.06099
395.40000 1.63015 0.13614 -0.00248
395.50000 1.54423 0.04577 -0.05591
395.60000 1.57782 0.02625 0.01232
395.70000 1.62975 -0.07663 -0.02307
395.80000 1.59109 -0.11409 0.09426
395.90000 1.51991 -0.05009 -0.03759
396.00000 1.53639 -0.12352 -0.02394
396.10000 1.51512 -0.15695 0.03721
396.20000 1.62327 0.07676 -0.04884
396.30000 1.59804 0.20074 -0.02547
396.40000 1.57082 0.00232 0.06524
396.50000 1.48912 -0.07785 -0.04321
396.60000 1.56599 0.06767 -0.07619
396.70000 1.59761 0.05537 0.07627
396.80000 1.54323 0.09718 -0.01184
396.90000 1.44371 0.16224 -0.01770
397.00000 1.46026 0.11998 -0.01577
397.10000 1.62707 0.19057 0.01525
397.20000 1.64986 0.18628 -0.02501
397.30000 1.50600 0.07631 -0.08845
397.40000 1.51335 0.09165 0.01805
397.50000 1.56248 -0.00846 -0.00287
397.60000 1.54092 -0.15065 -0.00234
397.70000 1.54611 -0.04324 0.02352
397.80000 1.64468 0.07640 0.02206
397.90000 1.58577 -0.00171 -0.01518
398.00000 1.52256 -0.11080 0.02047
398.10000 1.50868 0.07605 0.05252
398.20000 1.55255 0.18017 -0.00164
398.30000 1.55485 0.16342 -0.05293
398.40000 1.57771 0.17240 -0.04619
398.50000 1.58162 0.02650 0.00305
398.60000 1.54030 0.05019 0.06129
398.70000 1.56852 0.24025 -0.05738
398.80000 1.56138 0.22339 -0.01445
398.90000 1.49756 0.03700 -0.01519
399.00000 1.56675 -0.06282 0.04247
399.10000 1.58590 -0.19581 -0.03797
399.20000 1.52540 -0.33150 0.00326
399.30000 1.55988 -0.25975 0.01851
399.40000 1.51439 -0.14730 0.02656
399.50000 1.52879 0.01367 0.00188
399.60000 1.58797 0.11759 -0.00191
399.70000 1.53424 0.00167 0.00212
399.80000 1.51375 0.12271 -0.01693
399.90000 1.57825 0.28550 0.02872
400.00000 1.54868 -0.01798 -0.05393
400.10000 1.55953 -0.20840 0.01560
400.20000 1.53750 -0.13477 -0.01965
400.30000 1.58370 0.02328 -0.00014
400.40000 1.57122 -0.01272 0.01311
400.50000 1.54135 -0.05136 -0.03989
400.60000 1.53239 -0.12942 0.03285
400.70000 1.57296 -0.08923 0.00712
400.80000 1.57495 -0.04799 0.03188
400.90000 1.55422 0.05110 -0.01472
401.00000 1.53751 0.17750 0.04862
401.10000 1.60111 0.09202 -0.00251
401.20000 1.59213 0.08864 -0.02798
401.30000 1.49558 0.12853 0.01171
401.40000 1.53952 0.35192 -0.04168
401.50000 1.54850 0.40266 -0.01900
401.60000 1.46409 0.23290 0.06618
401.70000 1.57645 0.12325 -0.01052
401.80000 1.60025 -0.19474 -0.04376
401.90000 1.54448 -0.26268 0.04772
402.00000 1.51739 -0.07879 0.06489
402.10000 1.50674 -0.05715 -0.08216
402.20000 1.54840 0.00864 0.03996
402.30000 1.53801 0.05044 -0.02411
402.40000 1.60028 -0.17553 0.00095
402.50000 1.56158 -0.18388 0.07259
402.60000 1.53240 -0.02280 0.00506
402.70000 1.50872 -0.00294 -0.00207
402.80000 1.58348 -0.08093 0.01266
402.90000 1.59802 -0.23626 -0.01263
403.00000 1.52507 -0.16255 -0.03363
403.10000 1.54851 0.10084 0.01760
403.20000 1.61973 0.18125 0.01959
403.30000 1.52706 0.02569 -0.01879
403.40000 1.57535 0.01150 0.00222
403.50000 1.53975 -0.10780 -0.01955
403.60000 1.56633 -0.17985 -0.02108
403.70000 1.55126 -0.01022 -0.03651
403.80000 1.59058 0.09090 -0.07242
403.90000 1.58866 0.08323 0.01256
404.00000 1.53635 0.02623 0.07012
404.10000 1.49978 0.00770 -0.03957
404.20000 1.62725 0.12690 -0.00150
404.30000 1.58192 0.09296 0.02854
404.40000 1.47069 0.13377 0.00323
404.50000 1.50469 0.21186 -0.06827
404.60000 1.57646 0.24001 0.04045
404.70000 1.63536 0.22960 -0.04066
404.80000 1.52646 0.20820 0.00227
404.90000 1.57293 0.16003 -0.00644
405.00000 1.52353 0.05245 0.04841
405.10000 1.51242 0.06214 -0.00522
405.20000 1.56109 0.02294 -0.00544
405.30000 1.59360 -0.07479 0.00233
405.40000 1.61198 -0.05214 0.01466
405.50000 1.47746 -0.06260 -0.00136
405.60000 1.51737 0.04338 0.01203
405.70000 1.58131 0.02444 -0.01615
405.80000 1.53342 0.06523 -0.05614
405.90000 1.52648 0.14157 0.04324
406.00000 1.53967 0.03000 0.01236
406.10000 1.58887 -0.13394 0.01567
406.20000 1.57532 -0.18153 -0.00083
406.30000 1.52711 0.02760 0.02560
406.40000 1.48759 0.18618 -0.02883
406.50000 1.52231 0.05913 0.03173
406.60000 1.52192 0.13166 0.00828
406.70000 1.64874 0.22428 -0.02654
406.80000 1.56495 0.17966 -0.03808
406.90000 1.51799 0.04230 -0.01781
407.00000 1.57331 -0.01063 -0.03488
407.10000 1.50754 -0.06312 0.03693
407.20000 1.56980 -0.07294 -0.01038
407.30000 1.52800 -0.06497 -0.01243
407.40000 1.56514 0.06280 0.01793
407.50000 1.59848 -0.00182 -0.02226
407.60000 1.59640 -0.05889 -0.01677
407.70000 1.55343 0.07754 -0.00322
407.80000 1.56687 0.05775 0.00658
407.90000 1.59986 -0.05630 0.00013
408.00000 1.56529 0.06041 0.01147
408.10000 1.59419 -0.03164 -0.01966
408.20000 1.54655 -0.22588 0.01933
408.30000 1.54160 -0.22715 -0.02653
408.40000 1.57431 -0.07032 0.01166
408.50000 1.56352 0.03450 -0.01019
408.60000 1.58193 0.11827 -0.00445
408.70000 1.54972 0.27838 -0.00998
408.80000 1.53938 0.26466 -0.00511
408.90000 1.55034 -0.28575 -0.02958
409.00000 1.53707 -0.55395 -0.01470
409.10000 1.57363 -0.30451 -0.04082
409.20000 1.55670 0.07692 0.01707
409.30000 1.56462 -0.00863 0.02593
409.40000 1.55660 -0.04897 -0.02151
409.50000 1.51886 0.09952 0.01779
409.60000 1.55919 0.08324 -0.02488
409.70000 1.58682 0.06306 0.00990
409.80000 1.54744 -0.06617 0.07711
409.90000 1.53982 -0.19332 0.00985
410.00000 1.57077 -0.00012 -0.00094
410.10000 1.55217 0.01477 0.03632
410.20000 1.49514 -0.06019 -0.02978
410.30000 1.64165 -0.06045 0.00227
410.40000 1.62138 0.03058 0.00361
410.50000 1.56639 0.06099 0.05973
410.60000 1.50405 0.02461 -0.01341
410.70000 1.54026 0.05812 -0.04225
410.80000 1.54850 0.05349 -0.01000
410.90000 1.57949 -0.04997 0.01328
411.00000 1.58356 -0.13487 -0.07883
411.10000 1.54456 -0.14050 0.02694
411.20000 1.58250 -0.15843 0.05757
411.30000 1.52938 -0.25099 -0.02119
411.40000 1.53562 -0.32443 -0.07561
411.50000 1.53868 -0.42196 0.02601
411.60000 1.57037 -0.34198 0.04239
411.70000 1.55205 -0.34004 -0.00238
411.80000 1.58594 -0.25405 -0.02116
411.90000 1.56270 -0.00938 0.02579
412.00000 1.51874 0.19232 0.00035
412.10000 1.53947 0.08029 -0.02178
412.20000 1.59456 -0.17945 0.04069
412.30000 1.59161 0.06565 -0.04551
412.40000 1.58484 0.08920 0.06376
412.50000 1.56069 -0.06944 0.03610
412.60000 1.54065 -0.01480 0.01453
412.70000 1.64750 0.05741 -0.01514
412.80000 1.52965 0.25885 0.05010
412.90000 1.57560 0.09713 -0.00168
413.00000 1.60428 0.07423 -0.04848
413.10000 1.56381 0.01077 0.07450
413.20000 1.55431 -0.13093 0.00206
413.30000 1.50623 -0.06977 -0.02688
413.40000 1.55380 0.18899 -0.03461
413.50000 1.55104 0.33990 0.10265
413.60000 1.60087 0.06387 -0.03125
413.70000 1.56738 -0.07528 0.00613
413.80000 1.52503 -0.11271 0.05627
413.90000 1.59608 0.05417 -0.04936
414.00000 1.58591 0.07152 0.02578
414.10000 1.57701 -0.04781 0.01227
414.20000 1.58319 -0.14266 0.00997
414.30000 1.54984 -0.13747 -0.01170
414.40000 1.51348 -0.02052 0.03600
414.50000 1.55177 -0.01268 0.03257
414.60000 1.51238 0.19265 -0.00654
414.70000 1.58798 0.21701 -0.03652
414.80000 1.53997 0.15735 0.01935
414.90000 1.55933 -0.07680 0.01800
415.00000 1.59032 -0.02420 0.02122
415.10000 1.56601 -0.06597 -0.03342
415.20000 1.58404 -0.05517 -0.01513
415.30000 1.49862 0.01770 0.04475
415.40000 1.53099 0.09407 -0.00601
415.50000 1.55922 0.15113 -0.02117
415.60000 1.54926 0.24350 -0.04731
415.70000 1.56162 0.30277 0.06451
415.80000 1.58997 0.17945 0.00995
415.90000 1.59853 -0.26016 -0.06291
416.00000 1.52065 -0.30981 0.07269
416.10000 1.54523 -0.15324 -0.01570
416.20000 1.55242 0.03388 -0.08063
416.30000 1.56664 0.24269 -0.02050
416.40000 1.57262 0.16277 0.09158
416.50000 1.56646 0.08894 0.02731
416.60000 1.56294 -0.06156 0.00420
416.70000 1.53970 -0.18577 -0.08161
416.80000 1.56560 0.05818 0.08487
416.90000 1.60734 -0.04947 0.01016
417.00000 1.54396 -0.06684 -0.04382
417.10000 1.49076 -0.17688 -0.01448
417.20000 1.50935 -0.14789 0.00572
417.30000 1.60024 -0.31318 0.00924
417.40000 1.57230 -0.25975 0.02272
417.50000 1.53155 -0.15315 0.00561
417.60000 1.54860 0.05711 -0.05254
417.70000 1.52526 0.05814 -0.05115
417.80000 1.56512 0.00421 0.05873
417.90000 1.55409 -0.02296 0.00357
418.00000 1.55426 0.01031 -0.00839
418.10000 1.57402 0.02223 -0.00658
418.20000 1.53289 -0.06686 0.06444
418.30000 1.54381 -0.08209 -0.03418
418.40000 1.60562 0.02567 0.00114
418.50000 1.59907 0.03378 0.03202
418.60000 1.58777 0.09713 -0.03037
418.70000 1.56688 0.05308 -0.07747
418.80000 1.53340 0.01248 0.02862
418.90000 1.59138 -0.16925 0.02723
419.00000 1.56611 -0.33806 -0.05473
419.10000 1.50050 -0.25088 0.02780
419.20000 1.56725 -0.06260 -0.02319
419.30000 1.58937 0.11226 -0.03210
419.40000 1.51147 0.04171 0.02828
419.50000 1.48961 -0.04792 0.00736
419.60000 1.56475 -0.36602 0.00116
419.70000 1.60405 -0.38868 0.03442
419.80000 1.54208 -0.15687 0.02739
419.90000 1.55839 -0.12032 -0.00201
420.00000 1.60101 0.08648 -0.04948
420.10000 1.50488 0.34443 -0.04153
420.20000 1.50410 0.33471 0.05226
420.30000 1.53997 0.21632 0.00604
420.40000 1.53829 0.04382 -0.01056
420.50000 1.56727 -0.09381 0.02946
420.60000 1.60361 -0.08558 0.04023
420.70000 1.52837 -0.07086 0.03306
420.80000 1.52405 -0.12623 -0.06664
420.90000 1.52842 -0.22246 -0.01487
421.00000 1.60841 -0.14302 0.01614
421.10000 1.53570 -0.18742 -0.01763
421.20000 1.53630 -0.05393 -0.08308
421.30000 1.58906 -0.02807 0.03521
421.40000 1.56222 0.00851 0.05350
421.50000 1.60578 0.15023 -0.06666
421.60000 1.56514 0.18037 0.02311
421.70000 1.50969 0.26924 0.06604
421.80000 1.51564 -0.02499 0.00915
421.90000 1.56186 -0.15262 0.00448
422.00000 1.56780 -0.31106 -0.00746
422.10000 1.54964 -0.14972 -0.02685
422.20000 1.51797 0.16644 0.00131
422.30000 1.54397 0.29575 0.05306
422.40000 1.61275 0.13223 0.03503
422.50000 1.54630 -0.01698 -0.06557
422.60000 1.53005 0.04665 -0.02959
422.70000 1.51163 0.30518 0.07579
422.80000 1.58119 0.20224 -0.03789
422.90000 1.57872 0.07415 -0.02001
423.00000 1.54686 0.12677 0.02294
423.10000 1.52175 0.28377 -0.02766
423.20000 1.60444 0.29606 -0.00679
423.30000 1.58069 0.28511 0.00259
423.40000 1.50624 0.04968 -0.00495
423.50000 1.52224 -0.21253 0.00379
423.60000 1.55769 -0.15864 0.00327
423.70000 1.58308 -0.27493 -0.03097
423.80000 1.57010 -0.27538 0.00755
423.90000 1.51062 0.05067 0.04419
424.00000 1.52452 0.33837 0.01572
424.10000 1.58311 0.39234 -0.03169
424.20000 1.57484 0.15418 0.02438
424.30000 1.50449 -0.04768 0.00970
424.40000 1.55409 -0.02673 0.04395
424.50000 1.58407 -0.16765 0.00879
424.60000 1.55912 -0.20088 0.02640
424.70000 1.56633 0.07504 -0.03002
424.80000 1.57602 0.23392 -0.02417
424.90000 1.56903 0.27831 -0.01650
425.00000 1.60663 -0.00205 0.00983
425.10000 1.52768 -0.05894 0.01925
425.20000 1.54296 0.08547 -0.02163
425.30000 1.56301 0.16458 -0.04292
425.40000 1.60005 0.02414 0.05303
425.50000 1.55665 -0.03731 -0.03622
425.60000 1.57537 0.14273 0.03672
425.70000 1.50708 0.00245 0.00085
425.80000 1.52084 -0.14548 -0.01406
425.90000 1.54527 -0.06975 -0.01697
426.00000 1.58395 0.06021 0.00215
426.10000 1.58542 0.16326 0.00381
426.20000 1.52111 -0.12631 -0.04493
426.30000 1.56189 -0.23408 -0.00307
426.40000 1.63527 -0.01432 0.03060
426.50000 1.54041 0.29895 0.01045
426.60000 1.50922 0.22211 -0.01167
426.70000 1.56203 0.06712 0.00884
426.80000 1.56391 0.02788 0.02731
426.90000 1.48683 0.18479 -0.00840
427.00000 1.58094 0.11732 0.00004
427.10000 1.58744 0.01999 -0.00355
427.20000 1.52195 0.07492 0.04025
427.30000 1.51956 0.10462 -0.04548
427.40000 1.59349 0.08967 0.00725
427.50000 1.56464 0.13197 0.01329
427.60000 1.52586 -0.01719 -0.02337
427.70000 1.61057 -0.12229 -0.04173
427.80000 1.58048 -0.05246 0.00202
427.90000 1.57050 0.04792 -0.02024
428.00000 1.51195 -0.00008 -0.02974
428.10000 1.55252 0.01343 -0.02250
428.20000 1.54220 0.17192 -0.03578
428.30000 1.56744 0.07945 -0.01088
428.40000 1.51723 -0.02456 0.01837
428.50000 1.51454 -0.19261 0.04668
428.60000 1.57912 -0.08723 -0.03754
428.70000 1.60539 -0.06211 -0.04665
428.80000 1.54525 -0.08215 -0.01950
428.90000 1.51267 -0.08273 0.05749
429.00000 1.60033 -0.05398 -0.00720
429.10000 1.61991 0.04340 -0.04294
429.20000 1.56681 0.04138 -0.00489
429.30000 1.51594 -0.11135 0.09128
429.40000 1.58285 -0.19477 -0.01979
429.50000 1.56894 -0.15670 0.02065
429.60000 1.54673 -0.13907 0.01321
429.70000 1.54034 -0.24199 -0.00023
429.80000 1.55134 -0.19210 -0.04168
429.90000 1.55551 -0.19176 -0.02555
430.00000 1.55613 -0.00454 0.01008
430.10000 1.61685 0.14856 0.01679
430.20000 1.56947 0.19201 0.02561
430.30000 1.47044 0.04155 -0.01530
430.40000 1.60418 -0.03594 -0.00595
430.50000 1.57024 -0.13039 0.01691
430.60000 1.54104 -0.15066 0.00866
430.70000 1.63424 -0.06393 -0.05470
430.80000 1.54453 0.10197 -0.00779
430.90000 1.55141 0.10207 -0.02877
431.00000 1.56791 0.09103 0.04644
431.10000 1.53050 0.05150 -0.06798
431.20000 1.48169 0.02843 0.02284
431.30000 1.63040 -0.01318 0.09247
431.40000 1.53223 -0.04302 -0.04343
431.50000 1.48692 0.15460 -0.03361
431.60000 1.50393 0.28254 0.03888
431.70000 1.61502 0.28025 -0.04549
431.80000 1.49877 0.03239 -0.00601
431.90000 1.65270 -0.17478 -0.02096
432.00000 1.60861 -0.25679 0.02599
432.10000 1.53523 0.00086 0.05431
432.20000 1.54600 0.08277 0.03535
432.30000 1.58230 -0.13405 0.04387
432.40000 1.56054 -0.15718 -0.03700
432.50000 1.54440 -0.01780 -0.00481
432.60000 1.55407 0.13639 0.02348
432.70000 1.53152 0.18122 -0.04531
432.80000 1.60001 0.10100 0.04306
432.90000 1.62815 0.03614 0.07296
433.00000 1.54016 0.08319 -0.07102
433.10000 1.54110 0.05654 0.03820
433.20000 1.53917 0.03740 0.06560
433.30000 1.53278 -0.00301 -0.06575
433.40000 1.54218 -0.16050 -0.07718
433.50000 1.52848 -0.10552 0.05675
433.60000 1.59192 0.02062 -0.01649
433.70000 1.58687 0.16969 0.01891
433.80000 1.54597 0.01359 -0.03047
433.90000 1.48919 0.08317 0.05156
434.00000 1.58139 0.05823 -0.04120
434.10000 1.60461 0.03771 -0.05453
434.20000 1.57258 -0.09451 0.04244
434.30000 1.49815 -0.23991 -0.01484
434.40000 1.56740 -0.22960 -0.00450
434.50000 1.48825 -0.12209 0.04589
434.60000 1.55352 -0.19313 -0.03338
434.70000 1.58216 0.02572 0.02393
434.80000 1.61279 0.23370 0.02407
434.90000 1.48527 0.15792 -0.04885
435.00000 1.49949 0.16810 0.02746
435.10000 1.56110 0.08224 -0.00561
435.20000 1.60065 -0.11183 -0.04404
435.30000 1.58334 -0.08743 -0.02501
435.40000 1.58761 0.04020 0.03964
435.50000 1.58421 -0.12597 -0.05405
435.60000 1.53282 0.03878 -0.01970
435.70000 1.54119 0.20397 0.01975
435.80000 1.59460 0.27039 -0.00527
435.90000 1.55584 0.23506 0.00773
436.00000 1.56557 0.22658 0.03645
436.10000 1.54235 0.00623 0.04799
436.20000 1.55788 -0.27788 0.01632
436.30000 1.56699 -0.33555 -0.03826
436.40000 1.53354 -0.16183 0.00370
436.50000 1.57720 0.04208 -0.00744
436.60000 1.57575 0.18898 -0.00159
436.70000 1.57015 0.04382 -0.00677
436.80000 1.51376 -0.02089 0.00534
436.90000 1.54791 -0.05195 -0.00114
437.00000 1.56743 -0.15130 0.03028
437.10000 1.50515 -0.13211 -0.02369
437.20000 1.59037 -0.22697 0.02785
437.30000 1.55661 -0.20025 -0.01794
437.40000 1.56060 0.01798 -0.04143
437.50000 1.58244 0.15969 -0.00314
437.60000 1.53174 0.02680 0.02946
437.70000 1.58273 -0.09057 0.03541
437.80000 1.52728 -0.07898 0.00257
437.90000 1.52716 -0.06260 -0.04692
438.00000 1.61379 -0.03240 0.04654
438.10000 1.57100 -0.01216 -0.06178
438.20000 1.53387 0.14257 -0.00033
438.30000 1.55806 -0.04957 0.00218
438.40000 1.54151 -0.05199 -0.02331
438.50000 1.52013 0.11900 0.00926
438.60000 1.52592 0.25049 0.01138
438.70000 1.60849 0.30679 -0.01274
438.80000 1.57131 0.32797 0.01136
438.90000 1.51044 0.17377 0.00428
439.00000 1.56677 -0.01711 0.06176
439.10000 1.57374 -0.04783 -0.00726
439.20000 1.53156 0.16306 -0.00765
439.30000 1.60777 0.19067 -0.01649
439.40000 1.53653 0.33131 0.02777
439.50000 1.49269 0.23421 -0.03455
439.60000 1.57596 -0.05499 0.01687
439.70000 1.55726 -0.04445 0.00578
439.80000 1.53880 -0.09559 -0.07724
439.90000 1.59910 0.06864 0.01386
440.00000 1.56386 0.08081 0.03386
440.10000 1.49431 0.02426 -0.00200
440.20000 1.55466 -0.04517 -0.02971
440.30000 1.57398 0.11726 0.01145
440.40000 1.55666 0.00304 0.03184
440.50000 1.50793 0.12133 -0.04789
440.60000 1.55548 0.26076 0.02771
440.70000 1.61156 0.22787 0.01873
440.80000 1.60135 0.01966 -0.04771
440.90000 1.50219 -0.20573 0.03376
441.00000 1.48078 -0.37578 0.03153
441.10000 1.57364 -0.32356 -0.03426
441.20000 1.55950 -0.20482 0.01454
441.30000 1.55447 -0.19224 0.05172
441.40000 1.53850 -0.09683 -0.04104
441.50000 1.57866 -0.15394 -0.02904
441.60000 1.59954 0.05017 0.01138
441.70000 1.56471 0.15786 0.01141
441.80000 1.53836 0.03200 -0.05343
441.90000 1.55617 -0.02907 0.07145
442.00000 1.56768 -0.10901 -0.00069
442.10000 1.57552 -0.10859 -0.02580
442.20000 1.53961 -0.00964 0.05948
442.30000 1.50004 0.09693 -0.04775
442.40000 1.54538 0.03029 -0.03895
442.50000 1.58232 0.04200 0.03867
442.60000 1.55808 0.01114 0.04374
442.70000 1.57861 0.05126 -0.07631
442.80000 1.59233 0.18022 0.00050
442.90000 1.51479 -0.04694 0.05060
443.00000 1.50446 -0.20386 -0.01691
443.10000 1.58742 -0.29394 -0.02762
443.20000 1.56781 -0.24167 0.08268
443.30000 1.54546 -0.01191 0.04357
443.40000 1.56248 0.07212 -0.00476
443.50000 1.54348 0.02100 -0.04244
443.60000 1.61183 -0.14137 -0.02458
443.70000 1.56181 -0.02844 0.00608
443.80000 1.51501 -0.17864 0.04629
443.90000 1.53169 -0.33098 0.01045
444.00000 1.52656 -0.22212 0.01449
444.10000 1.57775 0.18278 0.03027
444.20000 1.55864 0.41400 0.00014
444.30000 1.52914 0.30520 -0.00302
444.40000 1.54493 0.00966 -0.00371
444.50000 1.56237 0.13491 0.02571
444.60000 1.56576 0.15252 -0.04921
444.70000 1.56531 0.03157 -0.03658
444.80000 1.54437 0.09528 0.06097
444.90000 1.54051 -0.01302 0.01457
445.00000 1.52117 -0.06160 -0.00616
445.10000 1.61707 -0.07914 -0.01870
445.20000 1.60308 0.13296 0.00737
445.30000 1.56653 0.26078 0.04605
445.40000 1.54918 0.07942 -0.02228
445.50000 1.59244 -0.19187 0.00629
445.60000 1.54368 -0.47821 -0.00648
445.70000 1.53838 -0.43819 -0.02225
445.80000 1.51862 -0.12104 -0.03176
445.90000 1.58859 0.23989 0.02856
446.00000 1.52648 0.23157 0.02177
446.10000 1.55861 0.05458 -0.03272
446.20000 1.51058 0.06308 -0.04452
446.30000 1.53949 0.14679 -0.01395
446.40000 1.58174 0.24440 -0.02396
446.50000 1.58062 0.02826 0.06102
446.60000 1.53629 -0.01993 -0.04730
446.70000 1.57995 -0.06733 -0.03268
446.80000 1.62466 0.05074 -0.00565
446.90000 1.48750 0.04595 0.03492
447.00000 1.57988 0.08726 -0.00374
447.10000 1.53757 -0.04661 -0.02154
447.20000 1.55498 -0.15863 0.02075
447.30000 1.56711 0.02132 0.03407
447.40000 1.56200 0.05528 0.00891
447.50000 1.53855 0.06314 -0.03697
447.60000 1.60416 0.03559 0.01158
447.70000 1.53960 0.02080 0.02093
447.80000 1.51597 0.10960 0.01728
447.90000 1.55892 0.26013 -0.00320
448.00000 1.57947 0.23587 -0.00896
448.10000 1.49241 0.05005 0.02576
448.20000 1.59307 -0.19126 -0.01750
448.30000 1.63159 -0.11227 0.05366
448.40000 1.51611 -0.21690 -0.06987
448.50000 1.55921 -0.15064 0.02021
448.60000 1.58203 -0.05802 -0.01417
448.70000 1.51399 -0.17079 -0.01072
448.80000 1.50277 -0.11555 0.00493
448.90000 1.57028 0.15353 -0.03314
449.00000 1.51292 0.37024 -0.00798
449.10000 1.49200 0.37265 -0.04912
449.20000 1.55597 0.20639 -0.01262
449.30000 1.56621 -0.04748 0.01685
449.40000 1.56006 -0.04656 0.02628
449.50000 1.54959 -0.05152 0.03315
449.60000 1.54419 -0.05404 0.02978
449.70000 1.56327 0.05884 0.00468
449.80000 1.52968 0.18006 -0.06083
449.90000 1.51752 0.17994 0.02348
450.00000 1.57508 0.16599 0.03548
450.10000 1.59488 -0.03679 -0.03812
450.20000 1.56871 -0.18400 0.03329
450.30000 1.52770 -0.22225 0.06018
450.40000 1.56824 -0.03982 -0.04183
450.50000 1.53591 -0.00135 0.02327
450.60000 1.60251 -0.03731 -0.00143
450.70000 1.58167 -0.08210 -0.05550
450.80000 1.49281 -0.16472 0.03532
450.90000 1.60358 -0.05901 0.08324
451.00000 1.61433 0.00193 -0.00100
451.10000 1.50063 -0.10027 -0.06397
451.20000 1.52992 0.11255 0.05998
451.30000 1.56281 0.23985 0.01484
451.40000 1.56849 0.23374 0.01337
451.50000 1.54626 0.30306 -0.01911
451.60000 1.57087 0.38462 -0.06246
451.70000 1.52513 0.29593 0.04501
451.80000 1.60208 -0.04721 0.03427
451.90000 1.56311 -0.22950 -0.06636
452.00000 1.60551 -0.13357 -0.03469
452.10000 1.56618 0.06405 0.03841
452.20000 1.51857 0.00511 0.02887
452.30000 1.55119 -0.23152 0.00102
452.40000 1.55299 -0.13511 -0.00926
452.50000 1.54469 0.11401 0.04972
452.60000 1.55050 0.38553 -0.03850
452.70000 1.52129 0.11209 0.03432
452.80000 1.59983 -0.29065 -0.05451
452.90000 1.56115 -0.33197 0.04172
453.00000 1.49472 -0.17557 -0.01397
453.10000 1.55625 -0.03389 -0.03128
453.20000 1.59627 0.16369 -0.01306
453.30000 1.56527 0.13128 -0.03826
453.40000 1.54225 0.07099 -0.00066
453.50000 1.57608 0.15151 0.02112
453.60000 1.58271 -0.06467 0.00233
453.70000 1.55678 -0.02645 0.01251
453.80000 1.57340 -0.08553 0.02566
453.90000 1.60105 -0.04381 -0.08554
454.00000 1.60273 0.18433 -0.03679
454.10000 1.55157 0.30269 0.04786
454.20000 1.57863 0.20784 0.08149
454.30000 1.51240 0.06871 -0.06792
454.40000 1.55962 -0.07653 0.00636
454.50000 1.57135 -0.16055 0.06875
454.60000 1.54758 -0.19942 -0.02405
454.70000 1.54058 -0.04167 -0.06493
454.80000 1.61812 0.26670 0.06519
454.90000 1.57305 0.35361 0.04984
455.00000 1.48621 0.33586 -0.07615
455.10000 1.60568 0.20262 -0.04172
455.20000 1.58788 0.00109 0.02970
455.30000 1.49287 -0.08645 -0.02037
455.40000 1.48133 0.02403 0.02680
455.50000 1.61772 -0.15843 -0.03362
455.60000 1.57613 -0.21433 -0.01631
455.70000 1.52092 -0.30881 -0.00247
455.80000 1.54771 -0.13372 -0.03098
455.90000 1.57076 0.04470 -0.00484
456.00000 1.51127 -0.01778 -0.00893
456.10000 1.56369 -0.00194 -0.00088
456.20000 1.59532 -0.12234 0.03168
456.30000 1.59232 0.00848 -0.05352
456.40000 1.61313 0.12776 0.00563
456.50000 1.50058 -0.11279 0.01977
456.60000 1.54526 -0.26850 0.00518
456.70000 1.61402 0.01134 -0.01682
456.80000 1.54265 0.08497 0.02580
456.90000 1.54855 -0.04547 0.01927
457.00000 1.55083 -0.04251 -0.10130
457.10000 1.54811 0.06365 0.00748
457.20000 1.57670 0.24844 0.02808
457.30000 1.55753 0.05271 0.01008
457.40000 1.58947 -0.25509 0.01341
457.50000 1.57151 -0.14958 0.00999
457.60000 1.50315 -0.15967 0.04545
457.70000 1.55884 -0.30999 -0.01466
457.80000 1.62503 -0.31940 -0.04949
457.90000 1.62143 -0.19283 0.07166
458.00000 1.50787 -0.04549 0.01248
458.10000 1.46473 0.12441 -0.00505
458.20000 1.62343 0.25742 0.02493
458.30000 1.59903 0.03050 -0.05308
458.40000 1.56853 -0.24558 -0.02986
458.50000 1.61765 -0.21619 0.00456
458.60000 1.57753 -0.18918 -0.00060
458.70000 1.60011 -0.15404 0.00858
458.80000 1.57110 -0.06977 -0.02814
458.90000 1.58525 -0.08048 0.05775
459.00000 1.52799 -0.24383 -0.04490
459.10000 1.54798 -0.21394 -0.04719
459.20000 1.63996 -0.16533 0.06190
459.30000 1.61085 -0.03425 -0.04794
459.40000 1.53988 0.14060 -0.02585
459.50000 1.49524 0.11941 0.02296
459.60000 1.57434 0.11281 0.04105
459.70000 1.57757 0.05909 0.02287
459.80000 1.54661 0.01000 0.03767
459.90000 1.58560 0.01382 0.04509
460.00000 1.55834 -0.04098 -0.00084
460.10000 1.56387 0.01313 -0.02137
460.20000 1.57992 0.04765 0.00554
460.30000 1.53796 0.13089 0.04160
460.40000 1.49901 0.09537 -0.04084
460.50000 1.62960 0.07020 -0.03630
460.60000 1.60420 -0.03966 0.08392
460.70000 1.55989 -0.06421 -0.00905
460.80000 1.53758 -0.21220 -0.04325
460.90000 1.55468 -0.21680 -0.01181
461.00000 1.58568 -0.07459 -0.00975
461.10000 1.57812 0.03678 0.04696
461.20000 1.57327 -0.02629 0.01213
461.30000 1.53159 0.06992 -0.03010
461.40000 1.51272 0.11289 0.02782
461.50000 1.54816 -0.12729 -0.01293
461.60000 1.57184 -0.26186 0.04589
461.70000 1.60179 -0.31958 -0.00328
461.80000 1.60334 -0.27970 -0.03853
461.90000 1.56579 -0.18919 -0.07794
462.00000 1.52028 0.06499 0.00999
462.10000 1.54632 0.20174 0.04960
462.20000 1.59612 0.32866 -0.06257
462.30000 1.57519 0.48975 0.01688
462.40000 1.50443 0.39336 0.02006
462.50000 1.53316 0.14411 -0.03517
462.60000 1.54216 0.06180 -0.02229
462.70000 1.59147 0.06299 0.07748
462.80000 1.54556 0.10691 0.00022
462.90000 1.55945 0.03047 -0.03047
463.00000 1.51345 -0.12379 -0.00673
463.10000 1.56092 0.07970 0.01713
463.20000 1.64174 0.13325 -0.00641
463.30000 1.54791 -0.05162 0.03309
463.40000 1.55952 -0.21140 -0.00318
463.50000 1.57057 -0.18308 -0.03004
463.60000 1.59643 -0.10626 0.04228
463.70000 1.52303 -0.09244 -0.01977
463.80000 1.58441 -0.19643 0.02110
463.90000 1.54127 0.03666 0.01550
464.00000 1.59600 0.07791 -0.05702
464.10000 1.56788 0.05900 -0.03003
464.20000 1.56163 -0.05783 0.05823
464.30000 1.55679 -0.21638 -0.00325
464.40000 1.57341 -0.13917 0.03798
464.50000 1.54015 0.01668 0.02812
464.60000 1.56297 -0.02231 -0.00160
464.70000 1.54490 0.04047 0.01853
464.80000 1.61751 0.13382 -0.04562
464.90000 1.50404 0.09450 0.05228
465.00000 1.56083 0.11265 -0.03133
465.10000 1.58230 -0.00683 0.04074
465.20000 1.54862 -0.02491 -0.02793
465.30000 1.47874 -0.08400 -0.02405
465.40000 1.54094 0.03265 -0.01288
465.50000 1.64877 0.12632 0.01114
465.60000 1.51989 0.00120 0.03978
465.70000 1.47252 0.06781 -0.00263
465.80000 1.61120 0.17653 -0.03754
465.90000 1.54995 0.05688 0.04013
466.00000 1.55868 0.08617 0.00860
466.10000 1.54245 0.19097 -0.01641
466.20000 1.58225 0.04100 -0.01941
466.30000 1.57841 -0.00754 -0.00834
466.40000 1.53540 -0.11401 -0.02322
466.50000 1.49516 -0.07060 0.05958
466.60000 1.59025 0.09569 -0.03524
466.70000 1.48586 0.14847 -0.01460
466.80000 1.57051 0.11634 0.03722
466.90000 1.61174 0.04987 -0.07240
467.00000 1.57732 -0.16043 -0.02643
467.10000 1.60054 -0.17836 0.04493
467.20000 1.54066 -0.12523 0.02726
467.30000 1.54198 -0.01863 -0.04935
467.40000 1.57630 0.09197 0.00229
467.50000 1.54081 0.05637 0.09727
467.60000 1.56257 -0.00268 -0.03348
467.70000 1.57821 -0.12143 -0.04305
467.80000 1.56670 -0.09662 -0.02867
467.90000 1.57491 -0.00313 -0.00544
468.00000 1.55579 -0.03252 0.05327
468.10000 1.53438 -0.10535 -0.04494
468.20000 1.58050 -0.04834 -0.02304
468.30000 1.53840 -0.09495 0.04005
468.40000 1.57189 -0.10684 -0.02997
468.50000 1.56979 -0.21465 -0.01585
468.60000 1.54624 -0.21054 0.01060
468.70000 1.55271 -0.09902 0.00466
468.80000 1.57038 0.03546 -0.00616
468.90000 1.54248 0.18846 0.01994
469.00000 1.55701 0.29949 -0.02488
469.10000 1.53178 0.20178 0.03654
469.20000 1.60352 -0.04004 0.00793
469.30000 1.55773 -0.15547 -0.00278
469.40000 1.59049 -0.07190 -0.01016
469.50000 1.57019 -0.22321 -0.01822
469.60000 1.54664 -0.21871 0.00391
469.70000 1.56744 -0.13794 0.05687
469.80000 1.56411 -0.13297 -0.07875
469.90000 1.55103 -0.14528 0.02098
470.00000 1.52436 -0.21509 0.07502
470.10000 1.52326 -0.01668 -0.05802
470.20000 1.55977 0.27503 0.00909
470.30000 1.57253 0.24358 0.01199
470.40000 1.58112 0.20491 -0.02889
470.50000 1.53475 0.04806 0.04507
470.60000 1.49521 -0.13772 0.02021
470.70000 1.56864 -0.11953 -0.04534
470.80000 1.56032 -0.09361 0.05246
470.90000 1.62015 -0.09938 -0.03520
471.00000 1.52767 -0.20311 0.01218
471.10000 1.49244 -0.23881 0.05357
471.20000 1.56729 -0.11403 -0.01687
471.30000 1.65634 -0.11833 -0.01190
471.40000 1.54727 -0.09843 0.01232
471.50000 1.56419 -0.17699 0.00956
471.60000 1.51312 -0.09974 -0.03619
471.70000 1.53135 0.07243 0.01833
471.80000 1.59168 0.10263 0.03757
471.90000 1.58264 0.20376 0.00940
472.00000 1.48369 0.20375 -0.03093
472.10000 1.58206 0.08125 0.06211
472.20000 1.65578 0.02555 -0.05765
472.30000 1.57462 0.11331 -0.04497
472.40000 1.51942 -0.03699 -0.00468
472.50000 1.58988 -0.06046 -0.00016
472.60000 1.53699 0.12882 -0.02183
472.70000 1.57904 0.12788 0.01556
472.80000 1.54245 0.05933 0.03727
472.90000 1.50883 -0.03716 -0.06471
473.00000 1.55055 -0.07158 0.04827
473.10000 1.53598 0.01370 0.00560
473.20000 1.57338 0.11454 0.04329
473.30000 1.60122 0.03850 0.00580
473.40000 1.48435 0.20251 -0.04182
473.50000 1.54492 0.19109 -0.02143
473.60000 1.64276 0.07615 -0.00282
473.70000 1.52750 -0.08768 0.00622
473.80000 1.55119 -0.20274 -0.06404
473.90000 1.54459 -0.18132 -0.00562
474.00000 1.55308 -0.02102 0.03933
474.10000 1.55316 0.14046 -0.00360
474.20000 1.50877 -0.03068 -0.01666
474.30000 1.55203 -0.11080 0.02676
474.40000 1.56704 -0.03219 0.01040
474.50000 1.55880 -0.05102 0.01502
474.60000 1.56482 -0.03061 0.04200
474.70000 1.55368 0.02354 -0.00685
474.80000 1.50689 0.00288 -0.05248
474.90000 1.57675 0.05509 0.04538
475.00000 1.60828 -0.06929 0.02791
475.10000 1.55968 -0.14439 0.00572
475.20000 1.53760 -0.13321 0.01553
475.30000 1.54065 -0.07077 -0.00480
475.40000 1.56081 -0.02689 0.01933
475.50000 1.52205 -0.14851 0.03490
475.60000 1.56724 -0.20572 -0.00686
475.70000 1.54022 -0.08807 -0.02118
475.80000 1.55545 0.05250 0.05307
475.90000 1.57202 0.12506 -0.02474
476.00000 1.48867 0.07170 -0.02833
476.10000 1.56719 -0.05751 0.07085
476.20000 1.57398 -0.25709 -0.05038
476.30000 1.57825 -0.16873 -0.01802
476.40000 1.59774 -0.06201 0.02827
476.50000 1.56248 0.13900 0.00705
476.60000 1.53387 0.11346 0.06178
476.70000 1.51639 -0.21579 -0.00875
476.80000 1.56079 -0.31228 -0.01737
476.90000 1.62526 -0.17745 0.02088
477.00000 1.47356 0.05674 0.01250
477.10000 1.49245 0.10246 -0.05166
477.20000 1.55438 0.06655 -0.05216
477.30000 1.55307 -0.06437 0.02976
477.40000 1.52743 -0.15604 0.06629
477.50000 1.54576 -0.17512 0.02555
477.60000 1.53600 -0.13834 -0.07064
477.70000 1.56431 0.10383 -0.05886
477.80000 1.52623 0.13672 0.03279
477.90000 1.55656 0.00892 -0.00932
478.00000 1.53862 0.01506 0.00469
478.10000 1.52497 0.15005 -0.00793
478.20000 1.54748 0.06677 -0.05022
478.30000 1.58313 0.04664 0.02255
478.40000 1.53881 0.00101 0.03308
478.50000 1.56622 0.08227 -0.07454
478.60000 1.60395 0.23310 0.00970
478.70000 1.61092 0.20839 0.07248
478.80000 1.54826 0.13982 -0.03948
478.90000 1.56730 0.06437 0.00264
479.00000 1.55976 -0.05252 0.00948
479.10000 1.52286 -0.12444 -0.04127
479.20000 1.53042 -0.19059 0.08563
479.30000 1.54375 0.08486 -0.02944
479.40000 1.60564 0.22652 -0.00376
479.50000 1.54338 0.02768 -0.04605
479.60000 1.54378 -0.29817 0.05228
479.70000 1.54363 -0.33084 0.02079
479.80000 1.62893 -0.03361 -0.03311
479.90000 1.56632 0.18443 -0.01895
480.00000 1.50173 0.14985 0.05602
480.10000 1.53742 0.11266 -0.01911
480.20000 1.57873 0.00776 -0.07396
480.30000 1.52979 -0.04036 0.05359
480.40000 1.56017 -0.17239 -0.04201
480.50000 1.52219 -0.06851 0.04279
480.60000 1.58846 0.01921 0.05116
480.70000 1.60649 0.18656 -0.04105
480.80000 1.56160 0.05581 0.00971
480.90000 1.56626 -0.09689 -0.01674
481.00000 1.55549 -0.07661 0.01143
481.10000 1.55041 -0.08660 -0.03336
481.20000 1.46931 -0.10562 -0.02503
481.30000 1.57187 -0.14304 0.03001
481.40000 1.56918 -0.06403 0.07999
481.50000 1.55530 0.11233 -0.02353
481.60000 1.58614 0.05467 -0.03619
481.70000 1.56754 -0.13259 0.00905
481.80000 1.47204 -0.13384 0.02705
481.90000 1.63941 -0.08172 -0.01144
482.00000 1.60587 -0.05078 0.08563
482.10000 1.54398 0.15968 -0.03146
482.20000 1.54501 0.10235 -0.02176
482.30000 1.54498 0.05387 0.03567
482.40000 1.55333 0.13449 -0.01540
482.50000 1.50812 -0.00151 -0.03602
482.60000 1.57850 0.02285 -0.01270
482.70000 1.53758 0.09718 -0.04589
482.80000 1.56232 0.20717 -0.01770
482.90000 1.56150 -0.04964 -0.00500
483.00000 1.57170 -0.20906 -0.00881
483.10000 1.55824 -0.12159 0.04921
483.20000 1.56778 0.00838 -0.00565
483.30000 1.54482 -0.08159 -0.03648
483.40000 1.53635 -0.10048 0.00859
483.50000 1.57431 0.07069 -0.01354
483.60000 1.54925 0.17085 -0.01212
483.70000 1.58305 0.11694 -0.02534
483.80000 1.60723 0.02986 0.01095
483.90000 1.57099 -0.03329 -0.05041
484.00000 1.51199 -0.16318 0.04389
484.10000 1.54144 -0.21510 0.02011
484.20000 1.56032 -0.18875 -0.01708
484.30000 1.59241 -0.04792 0.02290
484.40000 1.56324 0.08409 -0.00586
484.50000 1.53090 0.08097 0.01804
484.60000 1.47928 -0.12868 -0.03459
484.70000 1.52415 -0.03578 -0.02448
484.80000 1.62622 0.06555 0.00191
484.90000 1.53593 0.09398 0.02960
485.00000 1.55291 0.18689 0.01496
485.10000 1.51483 0.20553 -0.03925
485.20000 1.54184 0.31876 0.00176
485.30000 1.58980 0.19823 0.01881
485.40000 1.54997 0.02210 -0.07300
485.50000 1.56762 -0.00196 0.08267
485.60000 1.58121 -0.05150 0.00832
485.70000 1.53479 -0.08689 -0.04170
485.80000 1.57412 0.15493 -0.01633
485.90000 1.55709 0.03892 0.07760
486.00000 1.53528 -0.08999 -0.00722
486.10000 1.59343 -0.02423 0.03476
486.20000 1.56234 0.16690 -0.01222
486.30000 1.52883 0.25368 -0.02312
486.40000 1.48252 0.14978 0.07468
486.50000 1.58646 0.05356 -0.10389
486.60000 1.54444 0.01618 -0.01419
486.70000 1.55880 0.08770 0.05393
486.80000 1.56544 0.02405 0.05485
486.90000 1.54988 -0.05440 -0.06399
487.00000 1.56493 -0.22511 -0.04411
487.10000 1.52066 -0.34525 0.00550
487.20000 1.57259 -0.32055 -0.02046
487.30000 1.65773 -0.08319 -0.02021
487.40000 1.51052 0.07995 0.01180
487.50000 1.49653 0.12863 0.05624
487.60000 1.54696 0.09805 -0.00707
487.70000 1.59405 -0.07304 -0.02034
487.80000 1.58629 -0.22837 -0.05766
487.90000 1.54771 -0.25972 0.01331
488.00000 1.52373 -0.23090 0.00955
488.10000 1.57820 -0.12595 0.00776
488.20000 1.51744 -0.01322 0.02658
488.30000 1.54442 -0.10648 -0.06440
488.40000 1.57640 0.02979 -0.01140
488.50000 1.52472 -0.05203 -0.05014
488.60000 1.61612 -0.09556 0.00234
488.70000 1.59459 -0.14128 -0.02736
488.80000 1.55172 -0.06243 0.04055
488.90000 1.53420 0.09272 0.04577
489.00000 1.55848 0.04620 -0.05586
489.10000 1.51045 -0.02174 -0.01234
489.20000 1.55774 -0.28335 0.04823
489.30000 1.55089 -0.25830 0.02124
489.40000 1.53511 -0.16154 -0.00178
489.50000 1.60889 -0.06062 -0.04967
489.60000 1.56053 -0.03333 -0.00960
489.70000 1.53428 -0.09127 -0.00216
489.80000 1.62250 -0.20740 0.01773
489.90000 1.56511 -0.14987 -0.05735
490.00000 1.51786 -0.00642 -0.04922
490.10000 1.58006 -0.00153 0.01144
490.20000 1.61501 0.12433 0.03743
490.30000 1.50950 0.20163 0.03134
490.40000 1.51275 0.03926 0.01417
490.50000 1.59369 -0.14820 0.01341
490.60000 1.53680 -0.17227 -0.10595
490.70000 1.51452 -0.07847 0.03235
490.80000 1.55790 -0.01451 -0.02702
490.90000 1.51252 0.00799 0.00640
491.00000 1.59406 0.04167 0.07021
491.10000 1.53429 0.01911 0.00997
491.20000 1.50988 0.04535 -0.06822
491.30000 1.58704 0.16895 -0.00178
491.40000 1.52053 0.14521 0.02079
491.50000 1.55263 0.16010 -0.06058
491.60000 1.57612 0.00951 -0.01246
491.70000 1.56452 -0.08269 0.03639
491.80000 1.48072 0.00884 0.03120
491.90000 1.52916 0.05868 -0.07554
492.00000 1.58330 -0.02125 -0.04055
492.10000 1.55410 0.04365 0.00550
492.20000 1.56410 0.11247 -0.04675
492.30000 1.52605 0.02035 0.01942
492.40000 1.55772 -0.00691 0.01748
492.50000 1.58718 -0.04972 0.01806
492.60000 1.57380 -0.15821 -0.01449
492.70000 1.48581 -0.04860 0.01118
492.80000 1.49079 -0.13542 0.00629
492.90000 1.59885 -0.31581 -0.01610
493.00000 1.59057 -0.38759 -0.03727
493.10000 1.57507 -0.12446 0.05640
493.20000 1.60419 0.00190 0.00643
493.30000 1.52271 -0.08366 0.00318
493.40000 1.49167 -0.00289 0.04682
493.50000 1.63874 0.07306 -0.03703
493.60000 1.61051 -0.08944 -0.01170
493.70000 1.51000 -0.19836 0.04181
493.80000 1.57165 -0.08394 -0.04379
493.90000 1.52334 -0.00532 0.07682
494.00000 1.55156 0.02204 -0.02484
494.10000 1.57494 0.07472 -0.03016
494.20000 1.55629 0.06842 0.03404
494.30000 1.56564 -0.00966 -0.03600
494.40000 1.53813 -0.02723 -0.00365
494.50000 1.56029 -0.03102 -0.01226
494.60000 1.51586 -0.02446 0.02451
494.70000 1.59203 -0.10287 -0.01164
494.80000 1.56590 -0.09720 0.00176
494.90000 1.51013 -0.21337 -0.01953
495.00000 1.56358 -0.09605 0.00516
495.10000 1.55351 0.00667 -0.00641
495.20000 1.52622 0.14184 -0.00392
495.30000 1.51271 0.13211 0.04932
495.40000 1.56274 0.02727 -0.05510
495.50000 1.60807 -0.14261 0.03360
495.60000 1.52209 -0.18899 0.00503
495.70000 1.53876 -0.27352 -0.02712
495.80000 1.62734 -0.10603 -0.00923
495.90000 1.60024 -0.14834 -0.05371
496.00000 1.54765 -0.13766 0.02762
496.10000 1.50961 0.04991 0.00653
496.20000 1.48550 -0.02108 0.00548
496.30000 1.56539 -0.08660 0.00424
496.40000 1.58387 -0.25537 0.02499
496.50000 1.50333 -0.33960 -0.00935
496.60000 1.57863 -0.08958 0.00342
496.70000 1.58439 -0.02840 -0.02826
496.80000 1.51339 -0.00899 -0.02040
496.90000 1.51200 0.08319 0.07783
497.00000 1.53585 -0.01105 -0.00379
497.10000 1.65198 -0.13947 0.00416
497.20000 1.53855 -0.16034 0.02548
497.30000 1.53383 -0.09947 -0.01073
497.40000 1.51645 0.18673 -0.02032
497.50000 1.56402 0.15239 0.04534
497.60000 1.58363 0.03628 -0.01807
497.70000 1.52889 0.08533 -0.03044
497.80000 1.52146 0.20023 0.00070
497.90000 1.61682 0.13929 0.01958
498.00000 1.60777 -0.12530 0.00041
498.10000 1.51966 -0.13551 0.02091
498.20000 1.54136 -0.19356 -0.00625
498.30000 1.59058 -0.04662 0.04835
498.40000 1.47506 -0.00043 -0.00361
498.50000 1.51980 0.13112 -0.01125
498.60000 1.56442 0.15847 0.00685
498.70000 1.60128 -0.20183 0.01909
498.80000 1.60522 -0.37932 -0.02523
498.90000 1.52908 -0.33622 0.01835
499.00000 1.50011 0.05590 -0.02871
499.10000 1.55123 0.11836 0.04121
499.20000 1.61684 -0.02903 -0.00508
499.30000 1.56968 0.02563 -0.04109
499.40000 1.58738 0.19267 0.00871
499.50000 1.51579 0.58011 -0.02585
499.60000 1.56944 0.57832 -0.00536
499.70000 1.57375 0.29254 -0.04627
499.80000 1.55792 0.05422 0.00932
499.90000 1.53104 -0.10088 0.04126
500.00000 1.58834 -0.13191 -0.00783
